# Profile Smoothing is Disabled
#			total		H-		B-		C-		CH-		O-		OH-		F-		C_2-		C_2H-		CN-		BO-		BO-		^13CN-		C_2H_3-		Si-		S-		HS-		Cl-		C_3-		^37Cl-		C_3H-		C_2HO-		CNO-		SiO-		CHO_2-		SO-		C_4H-		C_3N-		C_2H_2O_2-		CHNO_2-		Cu-		SO_2-		C_3NO-		CuO-		SO_3-		SO_3H-		Si_2H_2S-		C_3H_6O_3-		SO_4H-		C_3Cl_2-		CHO_2Cl_2-		C_8H_6O-										W-		^194Pt-		Pt-		Au-		PtO-		WS-		CNPt-		PtO_2-		C_3NHPt-						C_14H_21O_6-				Pt_2-		Au_2-		CNAu_2-		Au_2Cl-		Cs_2Pt-						Au_3-		Au_3O_2-		Au_3Cl-		WS_3-		^182WS_3-		^186WS_3-		AuS		AuHS-		Au_4-		WS_4-		^182WS_4-		^183WS_4-		^186WS_4-		^186WS_3-		
#			N/A		1.0086		11.0095		11.9997		13.0078		15.9953		17.0032		18.9992		24.0004		25.0088		26.0045		27.0033		27.0049		27.0072		27.0266		27.9766		31.9721		32.9799		34.9697		36.0008		36.9663		37.0079		41.0048		42.0003		43.9710		44.9990		47.9675		49.0079		50.0056		58.0056		59.0114		62.9375		63.9559		66.0018		78.9180		79.9587		80.9727		89.9510		90.0465		96.9682		105.9466		114.9469		118.0424		123.9144		125.8989		140.9907		152.9225		183.9581		193.9616		194.9783		196.9601		210.9685		215.9349		220.9583		226.9534		245.9567		247.9060		277.8639		285.1595		373.1765		389.9172		393.9236		419.9379		428.9042		459.3289		460.3266		584.8618		590.8965		622.8720		623.8966		279.8661		277.8645		281.8696		228.9341		229.9403		787.8636		311.8416		309.8410		310.8429		313.8438		281.8701		
#Data Point #	Sputter Time (s)	Depth (nm)	Intensity(Raw)	Intensity	Intensity(Raw)	Intensity	Intensity(Raw)	Intensity	Intensity(Raw)	Intensity	Intensity(Raw)	Intensity	Intensity(Raw)	Intensity	Intensity(Raw)	Intensity	Intensity(Raw)	Intensity	Intensity(Raw)	Intensity	Intensity(Raw)	Intensity	Intensity(Raw)	Intensity	Intensity(Raw)	Intensity	Intensity(Raw)	Intensity	Intensity(Raw)	Intensity	Intensity(Raw)	Intensity	Intensity(Raw)	Intensity	Intensity(Raw)	Intensity	Intensity(Raw)	Intensity	Intensity(Raw)	Intensity	Intensity(Raw)	Intensity	Intensity(Raw)	Intensity	Intensity(Raw)	Intensity	Intensity(Raw)	Intensity	Intensity(Raw)	Intensity	Intensity(Raw)	Intensity	Intensity(Raw)	Intensity	Intensity(Raw)	Intensity	Intensity(Raw)	Intensity	Intensity(Raw)	Intensity	Intensity(Raw)	Intensity	Intensity(Raw)	Intensity	Intensity(Raw)	Intensity	Intensity(Raw)	Intensity	Intensity(Raw)	Intensity	Intensity(Raw)	Intensity	Intensity(Raw)	Intensity	Intensity(Raw)	Intensity	Intensity(Raw)	Intensity	Intensity(Raw)	Intensity	Intensity(Raw)	Intensity	Intensity(Raw)	Intensity	Intensity(Raw)	Intensity	Intensity(Raw)	Intensity	Intensity(Raw)	Intensity	Intensity(Raw)	Intensity	Intensity(Raw)	Intensity	Intensity(Raw)	Intensity	Intensity(Raw)	Intensity	Intensity(Raw)	Intensity	Intensity(Raw)	Intensity	Intensity(Raw)	Intensity	Intensity(Raw)	Intensity	Intensity(Raw)	Intensity	Intensity(Raw)	Intensity	Intensity(Raw)	Intensity	Intensity(Raw)	Intensity	Intensity(Raw)	Intensity	Intensity(Raw)	Intensity	Intensity(Raw)	Intensity	Intensity(Raw)	Intensity	Intensity(Raw)	Intensity	Intensity(Raw)	Intensity	Intensity(Raw)	Intensity	Intensity(Raw)	Intensity	Intensity(Raw)	Intensity	Intensity(Raw)	Intensity	Intensity(Raw)	Intensity	Intensity(Raw)	Intensity	Intensity(Raw)	Intensity	Intensity(Raw)	Intensity	Intensity(Raw)	Intensity	Intensity(Raw)	Intensity	Intensity(Raw)	Intensity	Intensity(Raw)	Intensity	Intensity(Raw)	Intensity	Intensity(Raw)	Intensity	Intensity(Raw)	Intensity	Intensity(Raw)	Intensity	Intensity(Raw)	Intensity	Intensity(Raw)	Intensity	Intensity(Raw)	Intensity	
1	0	0	3.77656e+006	4.11637e+006	221347	371774	25	25.0044	15621	16018.2	41921	44945	48349	52373.5	37613	39995.4	111938	137184	63216	70395.1	121692	152761	64443	72010.3	350	350.678	1025	1027.61	823	825.357	1570	1580.33	165	165.157	60177	66562.4	54897	60291.3	16531	16977.9	9652	9804.23	4459	4491.93	3921	4003.61	10189	10369.1	40690	43512.4	726	727.206	8669	8819.16	2715	2727.55	16076	16527.1	4364	4398.43	3714	3766.55	3714	3760.96	46	46.0251	3788	3971.09	1079	1086.07	204	204.148	16856	17356.5	3751	3778.04	129	129.109	265	265.447	10698	10897.7	200	200.144	89	89.0495	129	129.176	93	93.0541	35	35.0133	229	229.209	150	150.135	49	49.0288	82	82.0752	125	125.104	34749	36814.1	229	229.18	1433	1437.32	2701	2714.88	541	541.912	3440	3566.41	10822	11068.1	47469	51541.9	845	851.606	140	140.258	92	92.1851	7553	7656.82	1370	1374.05	5482	5534.46	488	494.5	570	600.665	238	238.448	27322	28626.3	7994	8112.83	391	395.434	61162	68158.4	47943	52115.8	57740	63975.6	8327	8447.95	36075	38402.2	4126	4161.34	12911	13213.6	9654	9827.19	6594	6681.26	12206	12467.9	58436	64792.3	
2	10	5.227	1.04518e+006	1.14096e+006	621	621.721	2	2.00011	131	131.043	81	81.0167	54958	60223.7	1302	1305.01	1246	1248.53	5567	5615.58	1413	1416.59	6747	6820.46	51	51.0189	141	141.062	106	106.052	28	28.0192	18	18.0035	7001	7077.66	417	417.389	846	847.25	850	851.21	286	286.145	56	56.0578	86	86.0268	1333	1335.99	12	12.0018	127	127.038	582	582.563	670	670.841	309	309.202	30	30.0126	156	157.033	5	5.00032	171	171.363	26	26.0075	37	37.0034	214	214.274	31	31.0083	9	9.00054	3	3.00021	87	87.0554	12	12.0008	6	6.0004	4	4.00049	19	19.0016	6	6.00035	5	5.00048	2	2.00003	4	4.00012	4	4.00023	2	2.00005	98058	116633	11	11.0008	2814	2826.52	949	950.456	28	28.0076	3628	3747.21	5431	5489	1187	1190.24	65	65.0532	15	15.0033	8	8.00125	29891	31352.7	211	211.089	2528	2538.23	52	52.0779	311	315.511	18	18.0035	87896	103235	282	282.237	89	89.0623	1622	1627.6	1225	1228.42	1456	1460.73	1363	1366.08	77958	89306	12955	13222.2	275	275.204	212	212.13	156	156.097	238	238.167	1499	1503.92	
3	20	10.454	692603	759198	249	249.146	4	4.00013	88	88.0174	39	39.0056	34852	36875	773	774.093	1132	1134.11	1989	1995.33	781	782.113	7227	7311.54	57	57.0218	158	158.068	111	111.056	21	21.0144	18	18.0038	4239	4267.18	241	241.15	1357	1360.11	263	263.139	441	441.356	25	25.0377	41	41.0085	1160	1162.28	10	10.0009	116	116.032	261	261.128	243	243.12	366	366.254	15	15.0046	132	132.916	13	13.0009	93	93.1409	17	17.0044	66	66.0085	224	224.362	30	30.011	7	7.00027	2	2.00012	81	81.0505	19	19.001	16	16.0009	6	6.00121	20	20.0014	7	7.0002	5	5.00055	4	4.00012	3	3.0001	3	3.00008	0	0	116742	144528	9	9.00053	1463	1466.47	237	237.108	27	27.0075	1659	1683.88	2541	2553.9	790	791.341	53	53.0295	2	2.00024	5	5.00038	36740	38978.8	242	242.108	1291	1293.72	29	29.0205	101	101.488	11	11.0011	102972	125031	185	185.087	45	45.0198	994	996.031	813	814.416	943	944.849	828	829.182	38151	40615.7	15189	15556.7	157	157.068	139	139.062	86	86.0284	147	147.059	964	965.916	
4	30	15.681	475101	514931	143	143.058	2	2.00006	72	72.0101	32	32.0041	22815	23661.2	517	517.523	894	895.318	1984	1990.26	536	536.595	7094	7174.66	43	43.0132	112	112.041	88	88.0348	19	19.0107	30	30.0054	2359	2367.83	166	166.094	1567	1571.17	301	301.182	473	473.394	28	28.0452	33	33.0062	832	833.213	7	7.00065	85	85.0173	123	123.036	167	167.06	501	501.424	16	16.0038	119	119.756	10	10.0005	72	72.0799	19	19.0038	74	74.0097	267	267.469	24	24.01	4	4.00017	3	3.00015	70	70.0401	16	16.0006	4	4.0002	3	3.00041	9	9.00034	5	5.00017	3	3.0002	4	4.00013	0	0	3	3.00006	4	4.0001	98182	116818	5	5.00014	706	706.833	169	169.056	18	18.0036	882	888.322	1117	1119.63	473	473.477	40	40.0182	4	4.00024	4	4.0002	29995	31464.8	218	218.082	651	651.695	19	19.008	33	33.0669	4	4.00012	88428	104009	70	70.0158	18	18.0033	581	581.737	480	480.492	541	541.69	469	469.396	18176	18711.9	12751	13008.8	72	72.0177	107	107.033	50	50.0091	85	85.0238	559	559.727	
5	40	20.908	422144	463502	106	106.038	3	3.00008	80	80.0134	13	13.0011	17109	17578.8	364	364.279	866	867.25	2189	2196.59	405	405.358	7295	7381.07	39	39.012	114	114.041	88	88.0356	14	14.0079	30	30.0048	1565	1568.94	96	96.0472	1721	1726.02	320	320.207	514	514.446	21	21.0358	28	28.0038	667	667.786	7	7.00096	79	79.0151	90	90.019	154	154.057	531	531.47	7	7.00129	133	133.769	9	9.00056	58	58.0561	15	15.0027	71	71.009	252	252.427	20	20.0082	10	10.0004	2	2.0001	85	85.057	10	10.0002	10	10.0005	6	6.00069	7	7.0002	6	6.00011	5	5.00037	5	5.00013	1	1.00002	2	2.00007	1	1.00001	102742	123414	5	5.0003	420	420.314	206	206.077	23	23.0055	460	461.878	708	709.054	331	331.23	36	36.0163	5	5.00028	4	4.00018	31877	33543.7	239	239.097	394	394.257	19	19.0064	21	21.023	6	6.00021	91947	108923	82	82.0163	12	12.002	397	397.37	337	337.237	336	336.33	322	322.19	10293	10462.6	13203	13479.3	77	77.0168	58	58.0112	38	38.0057	58	58.0112	347	347.343	
6	50	26.135	406986	453585	76	76.0237	3	3.00012	79	79.0134	7	7.00056	13562	13855.5	306	306.22	846	847.221	2282	2290.28	340	340.275	7475	7566.23	36	36.0126	112	112.047	91	91.0409	16	16.0097	22	22.0038	1216	1218.42	79	79.0419	1734	1739.29	343	343.244	598	598.612	27	27.0534	29	29.0037	674	674.808	7	7.00111	82	82.017	58	58.0102	154	154.055	566	566.553	12	12.0014	119	119.628	11	11.0007	44	44.0335	21	21.004	93	93.0167	197	197.299	11	11.0045	7	7.00018	0	0	97	97.0722	18	18.0008	9	9.00042	2	2.00018	8	8.0003	6	6.00022	5	5.00034	1	1.00002	0	0	2	2.00003	4	4.00006	109968	134138	9	9.00037	270	270.13	191	191.068	19	19.005	258	258.714	474	474.505	244	244.143	51	51.0249	4	4.00017	2	2.00007	33927	35824.9	233	233.091	258	258.111	9	9.00216	24	24.0149	7	7.00033	96971	116127	51	51.0077	13	13.002	325	325.255	260	260.159	274	274.231	249	249.12	6123	6182.83	13582	13874.6	58	58.0102	55	55.0087	24	24.0027	50	50.0091	284	284.242	
7	60	31.362	376378	418562	71	71.0258	5	5.00014	73	73.0102	7	7.00067	10919	11108.3	249	249.161	803	804.11	2267	2275.22	322	322.262	7258	7343.82	48	48.0198	131	131.062	100	100.052	22	22.0149	24	24.0042	928	929.489	47	47.0294	1939	1945.5	341	341.271	618	618.678	30	30.0632	17	17.0019	624	624.723	7	7.00104	69	69.0158	56	56.0114	146	146.052	566	566.543	7	7.001	89	89.3944	11	11.0008	41	41.0307	15	15.0033	69	69.011	187	187.245	14	14.0056	3	3.00008	1	1.00004	59	59.0311	12	12.0005	7	7.00035	1	1.00012	5	5.00015	4	4.00012	4	4.00034	5	5.00011	1	1.00002	1	1.00004	3	3.00008	105257	127118	9	9.00042	175	175.06	203	203.078	21	21.0054	156	156.279	341	341.272	189	189.085	63	63.0332	3	3.00007	1	1.00005	32375	34095.8	227	227.087	195	195.07	11	11.0024	18	18.0094	1	1.00004	93406	110947	45	45.0052	5	5.00055	264	264.187	199	199.093	228	228.181	184	184.081	4062	4088.23	13057	13326.9	45	45.0071	31	31.0035	19	19.0022	30	30.0045	240	240.193	
8	70	36.589	311828	339215	60	60.0225	3	3.00011	69	69.0102	8	8.0006	8645	8763.09	195	195.094	680	680.807	2123	2130.09	274	274.191	6962	7040.92	37	37.0133	110	110.045	86	86.0381	14	14.0083	25	25.0046	718	718.898	46	46.0288	1759	1764.46	340	340.245	555	555.549	29	29.0539	15	15.0017	496	496.476	3	3.00038	53	53.011	49	49.01	143	143.051	566	566.552	10	10.0012	84	84.3152	8	8.00054	27	27.0137	19	19.0038	87	87.0146	158	158.179	11	11.0043	5	5.00018	1	1.00005	66	66.0266	13	13.0005	11	11.0005	3	3.00018	9	9.00029	8	8.00022	6	6.00033	1	1.00002	2	2.00002	1	1.00003	1	1.00002	85506	99180.1	4	4.0002	151	151.042	169	169.056	16	16.0027	112	112.151	218	218.12	137	137.053	61	61.0308	5	5.00026	3	3.0001	25755	26828.3	223	223.083	130	130.031	16	16.003	14	14.0049	2	2.00006	78503	90419.2	25	25.0023	10	10.001	156	156.078	142	142.056	149	149.092	141	141.047	2769	2781.28	11013	11204.4	27	27.0036	15	15.0014	13	13.0013	31	31.0042	166	166.105	
9	80	41.816	340891	377783	44	44.0145	3	3.00009	67	67.0109	8	8.00056	7091	7170.12	173	173.086	755	755.98	2274	2282.28	249	249.176	7014	7094.51	34	34.013	112	112.048	78	78.0371	17	17.01	18	18.003	584	584.619	45	45.0291	1815	1820.99	380	380.333	606	606.661	25	25.0521	21	21.0028	543	543.558	9	9.00142	69	69.015	46	46.0076	147	147.057	618	618.646	7	7.00081	72	72.2338	5	5.00029	35	35.0183	20	20.0036	83	83.0143	110	110.1	10	10.0039	4	4.00009	2	2.00007	58	58.0242	12	12.0005	7	7.00031	2	2.00016	8	8.00034	5	5.0001	0	0	5	5.00012	1	1.00001	1	1.00003	5	5.00013	99251	118366	6	6.00031	126	126.033	202	202.072	8	8.00193	94	94.1102	183	183.093	112	112.043	38	38.0187	6	6.00029	1	1.00002	30110	31590.7	233	233.091	110	110.023	9	9.00143	15	15.004	0	0	88400	103912	35	35.0043	5	5.00029	101	101.051	118	118.047	134	134.094	112	112.033	1839	1844.52	12364	12605.5	27	27.0038	22	22.0024	15	15.0016	23	23.0028	147	147.104	
10	90	47.043	352626	394329	48	48.0174	5	5.0002	67	67.0107	10	10.0011	6041	6098.54	148	148.063	813	814.121	2332	2340.66	264	264.195	6793	6869.47	36	36.0145	116	116.052	86	86.0429	19	19.0124	21	21.0042	459	459.398	42	42.0296	1847	1853.36	353	353.33	556	556.592	32	32.0632	19	19.0017	529	529.556	5	5.00105	66	66.0165	44	44.0091	159	159.067	604	604.607	9	9.00076	70	70.196	7	7.0005	24	24.01	27	27.0061	81	81.012	97	97.0741	13	13.005	4	4.00005	0	0	41	41.0171	12	12.0003	5	5.00031	4	4.00034	5	5.00013	3	3.00008	2	2.00007	2	2.00005	1	1.00001	2	2.00005	1	1.00002	105516	127502	3	3.00014	90	90.0199	211	211.086	28	28.0063	61	61.0528	145	145.07	79	79.0243	46	46.0231	3	3.0001	3	3.00008	32284	33996.7	198	198.067	101	101.019	9	9.00141	17	17.0038	2	2.00007	92504	109718	17	17.0014	4	4.00029	98	98.0491	78	78.0245	106	106.068	105	105.03	1383	1386.12	12821	13080.9	25	25.004	14	14.0013	13	13.0013	25	25.0042	117	117.076	
11	100	52.27	296991	324371	44	44.0129	2	2.00007	58	58.0076	4	4.00041	4717	4752.06	108	108.039	665	665.766	2073	2079.88	270	270.215	6131	6193.03	27	27.0099	98	98.0403	71	71.0318	22	22.0127	23	23.0039	379	379.295	44	44.0288	1533	1537.49	340	340.297	518	518.514	21	21.038	16	16.0018	443	443.413	4	4.00074	54	54.0135	33	33.006	118	118.036	490	490.425	8	8.00056	72	72.1847	7	7.00036	20	20.0059	22	22.0043	78	78.0117	86	86.0585	14	14.0049	7	7.00027	3	3.00018	25	25.007	10	10.0003	8	8.00039	3	3.00025	8	8.00032	7	7.00025	3	3.00013	3	3.00006	1	1.00001	1	1.00003	1	1.00001	85885	99697.7	6	6.00024	63	63.0119	163	163.055	11	11.0022	46	46.0304	99	99.0333	65	65.0191	52	52.0245	1	1.00003	2	2.00002	26590	27736.1	182	182.055	58	58.0069	12	12.0021	12	12.002	1	1.00001	78227	90067.4	19	19.0019	2	2.00009	85	85.034	68	68.0204	97	97.0614	75	75.0205	994	995.664	11158	11354.3	18	18.0024	17	17.0017	15	15.0013	12	12.0019	108	108.07	
12	110	57.497	302175	331142	46	46.0143	2	2.00006	68	68.0097	6	6.00071	3958	3982.73	113	113.044	637	637.715	2104	2111.08	207	207.132	6218	6281.33	30	30.0112	98	98.0393	68	68.0301	9	9.00479	24	24.0048	304	304.203	52	52.0445	1647	1652.37	316	316.275	502	502.508	25	25.0449	15	15.0021	400	400.347	8	8.00178	48	48.0112	35	35.0051	123	123.04	555	555.536	6	6.00042	64	64.1354	4	4.00019	26	26.0093	20	20.0038	66	66.0105	86	86.0399	9	9.00272	1	1.00002	0	0	46	46.0149	14	14.0006	9	9.00041	2	2.00016	6	6.00024	3	3.00009	3	3.0001	4	4.00011	2	2.00004	3	3.00011	5	5.00015	88456	103206	6	6.00032	49	49.0061	198	198.072	18	18.0044	42	42.0233	87	87.03	50	50.0145	62	62.0358	4	4.00012	2	2.00004	26829	27997.9	164	164.045	68	68.0088	12	12.0016	9	9.00143	1	1.00001	80163	92618.6	14	14.0011	7	7.00036	59	59.0264	53	53.0156	82	82.0485	62	62.014	791	792.071	11132	11327.2	13	13.0011	14	14.0013	9	9.00099	12	12.0016	90	90.0536	
13	120	62.724	320377	354526	52	52.0174	2	2.00005	71	71.0116	7	7.00061	3469	3488.12	84	84.0319	702	702.858	2268	2276.15	239	239.184	6128	6189.86	42	42.0165	111	111.05	92	92.0441	11	11.0066	29	29.0082	256	256.173	28	28.023	1616	1621.34	358	358.353	501	501.493	24	24.0426	20	20.0023	414	414.399	7	7.00156	32	32.0066	29	29.0049	135	135.055	528	528.486	13	13.0016	61	61.1157	3	3.00013	13	13.0037	20	20.0053	86	86.0153	55	55.0228	9	9.00276	1	1.00001	2	2.00003	36	36.0106	10	10.0003	8	8.00042	4	4.00023	3	3.00007	1	1.00001	4	4.00015	3	3.00011	4	4.00013	3	3.00012	1	1.00001	96078	113835	2	2.0001	43	43.0058	199	199.076	17	17.0041	25	25.011	72	72.0241	42	42.0104	72	72.0435	2	2.00006	4	4.00014	29138	30525	193	193.063	58	58.0069	11	11.0015	9	9.00125	2	2.00005	85309	99664.5	24	24.0024	6	6.00022	60	60.0285	43	43.0109	66	66.0464	59	59.0151	554	554.569	11913	12137.6	13	13.0017	6	6.00056	8	8.00068	15	15.0023	82	82.0579	
14	130	67.951	331417	368978	45	45.0168	1	1.00002	72	72.0095	14	14.0019	2936	2949.69	90	90.0293	726	726.94	2101	2108.1	250	250.188	5949	6007.4	36	36.0157	104	104.051	83	83.0431	16	16.0104	16	16.0043	230	230.134	40	40.036	1610	1615.37	358	358.357	496	496.52	21	21.0377	15	15.0023	377	377.33	7	7.00171	40	40.0116	29	29.0064	128	128.046	570	570.56	12	12.001	61	61.1034	4	4.00029	12	12.0031	26	26.0069	59	59.0073	43	43.0168	9	9.00236	2	2.00007	2	2.00009	20	20.0042	15	15.0008	6	6.00025	1	1.00009	3	3.00009	2	2.00002	0	0	0	0	3	3.00007	5	5.00021	3	3.00008	100309	119907	3	3.00014	32	32.0035	201	201.072	14	14.0042	21	21.0088	38	38.0109	25	25.0067	56	56.031	3	3.00011	2	2.00006	30696	32239.2	195	195.062	53	53.0061	3	3.00045	10	10.002	1	1.00002	88977	104717	6	6.00037	10	10.0007	53	53.0217	28	28.0077	57	57.0383	52	52.0116	394	394.307	12304	12543.2	11	11.0015	15	15.0012	15	15.0021	14	14.0026	68	68.0457	
15	140	73.178	273937	296781	39	39.0132	0	0	62	62.0085	6	6.0006	2442	2451.37	77	77.0263	550	550.539	2022	2028.58	189	189.128	5596	5647.8	23	23.0098	82	82.0361	54	54.0256	14	14.0076	19	19.0047	184	184.09	43	43.0414	1416	1420.22	338	338.323	467	467.442	25	25.0422	13	13.0014	328	328.244	10	10.0022	33	33.0075	26	26.0051	109	109.039	564	564.574	9	9.00064	40	40.0574	9	9.0007	15	15.0032	25	25.0064	65	65.0106	41	41.0123	3	3.00077	4	4.00009	3	3.0001	28	28.0064	5	5.00022	4	4.00014	0	0	1	1.00003	4	4.00016	3	3.0001	4	4.00009	0	0	1	1.00003	1	1.00002	78474	89797.9	2	2.00011	24	24.0021	194	194.073	11	11.0017	16	16.0051	44	44.0111	32	32.0079	71	71.0484	2	2.00003	0	0	23531	24423.5	167	167.047	31	31.0022	9	9.00074	4	4.00052	3	3.00006	72992	83135	13	13.0008	2	2.00007	43	43.019	33	33.0082	54	54.037	26	26.0038	297	297.177	10221	10385.4	13	13.0018	14	14.0014	11	11.0014	14	14.0023	68	68.0469	
16	150	78.405	302512	332085	35	35.012	2	2.00009	58	58.0092	6	6.00075	2092	2098.97	64	64.0257	622	622.72	2007	2013.48	205	205.152	5473	5522.95	37	37.0158	93	93.0422	64	64.0317	19	19.0108	21	21.0042	149	149.073	63	63.0715	1433	1437.41	331	331.338	469	469.459	21	21.0364	16	16.0022	289	289.228	6	6.00197	32	32.0076	24	24.0042	116	116.044	483	483.416	2	2.00017	44	44.0605	7	7.00037	11	11.0021	19	19.0053	66	66.0091	28	28.0064	8	8.00249	3	3.00012	1	1.00004	31	31.0057	8	8.00027	3	3.00017	4	4.00026	6	6.00026	1	1.00003	3	3.0001	3	3.00011	0	0	1	1.00003	1	1.00001	89309	104383	1	1.00005	8	8.00059	170	170.057	12	12.0028	17	17.0064	31	31.0088	29	29.0081	73	73.0513	3	3.00008	4	4.00012	26997	28179.7	170	170.051	39	39.0029	9	9.00103	9	9.001	0	0	80922	93672.9	11	11.0007	5	5.00022	45	45.0205	36	36.0104	44	44.0302	32	32.006	200	200.092	11215	11413.4	5	5.00058	9	9.00077	6	6.00064	9	9.00135	58	58.0397	
17	160	83.632	335744	374370	32	32.0121	3	3.00008	70	70.0115	8	8.00095	1931	1936.96	76	76.0293	660	660.786	1997	2003.53	230	230.164	5600	5652.63	31	31.0172	111	111.069	88	88.0572	23	23.0184	23	23.0057	130	130.054	39	39.0406	1397	1401.4	308	308.295	428	428.391	24	24.0384	15	15.0016	297	297.246	11	11.0028	41	41.0119	20	20.0039	121	121.045	522	522.5	5	5.00041	49	49.059	2	2.00012	14	14.0029	24	24.0063	81	81.0143	26	26.0045	8	8.00214	4	4.00015	3	3.00016	20	20.0037	4	4.00014	5	5.00023	1	1.00004	5	5.00019	4	4.00009	2	2.00007	6	6.00015	0	0	1	1.00004	1	1.00001	101541	121683	3	3.00019	21	21.0019	190	190.077	18	18.0045	18	18.0058	23	23.0074	27	27.0069	65	65.0462	2	2.00005	0	0	30821	32376.1	147	147.037	37	37.0037	12	12.0018	12	12.0015	3	3.00006	90109	106331	11	11.0007	5	5.00031	32	32.0156	30	30.0078	37	37.0265	32	32.0072	152	152.061	12396	12639.1	11	11.0013	16	16.002	11	11.0011	12	12.0017	57	57.0406	
18	170	88.859	274036	296814	32	32.0119	5	5.00013	60	60.0073	7	7.00113	1663	1667.38	48	48.0164	548	548.541	1882	1887.69	194	194.15	4931	4972.3	23	23.0086	74	74.0315	60	60.0267	20	20.0109	20	20.0048	105	105.041	45	45.0504	1351	1355.22	286	286.278	403	403.373	15	15.0233	17	17.0026	275	275.219	5	5.00167	45	45.0122	20	20.0042	104	104.039	475	475.394	5	5.00045	37	37.0396	2	2.00014	10	10.0017	27	27.0086	77	77.013	16	16.0025	4	4.00076	1	1.00004	3	3.00016	19	19.0032	7	7.00018	2	2.00005	0	0	0	0	2	2.00004	5	5.0001	2	2.00003	1	1.00002	1	1.00004	4	4.00005	78802	90223.5	5	5.00031	10	10.0011	174	174.059	8	8.00173	14	14.0031	20	20.0053	23	23.0057	70	70.0444	2	2.00007	2	2.00005	23195	24060.7	135	135.032	31	31.0024	4	4.00042	11	11.0013	1	1.00003	72545	82568.8	7	7.00027	9	9.00047	31	31.0136	27	27.0068	54	54.0404	23	23.0039	101	101.033	9981	10137.3	11	11.0014	5	5.0005	9	9.00106	10	10.0014	61	61.0455	
19	180	94.086	287483	313206	41	41.017	2	2.00005	60	60.0079	6	6.00069	1531	1534.79	60	60.0211	583	583.619	1861	1866.62	196	196.149	4766	4804.36	26	26.0116	75	75.0362	61	61.0303	25	25.015	21	21.0057	81	81.0313	37	37.0458	1399	1403.34	294	294.288	383	383.339	28	28.0417	15	15.0018	232	232.168	12	12.0047	27	27.0079	18	18.0039	110	110.045	476	476.42	3	3.00027	41	41.039	4	4.00024	14	14.0024	21	21.0083	49	49.0063	17	17.0022	6	6.00136	2	2.00005	3	3.0001	23	23.0044	2	2.00004	3	3.00009	4	4.00023	4	4.00011	2	2.00006	2	2.00009	2	2.00003	2	2.00002	1	1.00003	3	3.00009	83826	96923.5	2	2.00007	11	11.001	181	181.068	16	16.003	20	20.005	14	14.0042	18	18.0049	71	71.0467	1	1.00001	2	2.00005	24784	25777.3	163	163.047	21	21.0014	15	15.0019	9	9.00096	1	1.00003	76209	87334.1	7	7.00036	8	8.00029	29	29.0141	20	20.0055	52	52.0352	22	22.0034	82	82.0243	10458	10630	14	14.0017	12	12.0013	12	12.0013	13	13.0023	68	68.0463	
20	190	99.313	327146	362766	29	29.0107	5	5.00008	82	82.015	11	11.0015	1425	1428.34	40	40.0142	628	628.716	1857	1862.55	215	215.17	4862	4902.22	21	21.0101	74	74.0378	53	53.0283	21	21.013	20	20.0049	77	77.0306	37	37.0487	1309	1313.18	309	309.329	406	406.4	21	21.0328	18	18.0029	244	244.181	10	10.0041	34	34.0101	17	17.0035	100	100.037	449	449.355	14	14.0015	36	36.0345	3	3.00022	12	12.0022	21	21.0066	60	60.0097	19	19.0025	6	6.00135	4	4.00015	1	1.00005	18	18.003	4	4.00014	4	4.00015	2	2.00016	3	3.00009	2	2.00007	3	3.00011	0	0	2	2.00003	0	0	3	3.00007	97812	116330	3	3.00021	12	12.0012	157	157.049	19	19.0042	13	13.0036	14	14.0042	20	20.0048	80	80.0612	7	7.00025	2	2.00008	29604	31036.6	154	154.04	28	28.0026	12	12.0017	11	11.0013	6	6.0002	87120	102136	10	10.0009	3	3.00017	27	27.0128	21	21.0051	54	54.0401	30	30.0067	75	75.0231	12062	12291.6	9	9.00124	10	10.0011	9	9.00105	16	16.003	66	66.0491	
21	200	104.54	305351	335280	48	48.0164	2	2.00007	56	56.0074	8	8.00103	1370	1373.01	44	44.015	576	576.596	1774	1779.11	195	195.139	4525	4559.52	23	23.0108	93	93.049	71	71.0395	20	20.0132	20	20.005	85	85.0361	44	44.0592	1201	1204.61	250	250.238	393	393.357	19	19.029	18	18.0022	225	225.183	13	13.0062	28	28.0078	20	20.0041	89	89.0328	422	422.342	11	11.0012	37	37.0364	3	3.00015	13	13.0019	32	32.0129	58	58.0084	11	11.0014	10	10.0022	4	4.00015	4	4.00019	15	15.0027	9	9.0004	3	3.00009	0	0	0	0	1	1.00001	0	0	1	1.00002	4	4.00011	1	1.00002	0	0	90525	106071	5	5.00025	14	14.001	160	160.054	14	14.0031	11	11.0024	14	14.0039	17	17.0042	79	79.062	1	1.00005	1	1.00004	26591	27738.7	147	147.038	28	28.0017	8	8.00093	11	11.0015	1	1.00001	80730	93389.3	14	14.0013	5	5.00025	28	28.0119	22	22.0054	63	63.045	22	22.0043	46	46.0131	10997	11187.9	11	11.0017	5	5.00055	10	10.0012	13	13.0024	75	75.054	
22	210	109.767	267292	288379	22	22.0063	1	1.00002	56	56.0063	7	7.00086	1241	1243.47	47	47.0146	544	544.559	1573	1577.03	182	182.142	4198	4228.19	16	16.007	77	77.0373	61	61.0307	21	21.0126	24	24.0068	64	64.024	46	46.0644	1081	1084.04	227	227.209	358	358.287	19	19.0254	8	8.00098	193	193.128	9	9.00408	25	25.0074	10	10.0018	99	99.0377	399	399.32	3	3.00029	35	35.0316	3	3.00019	6	6.00109	23	23.0067	46	46.0046	12	12.001	6	6.00113	0	0	6	6.00024	14	14.0019	7	7.00014	2	2.00009	3	3.00014	0	0	2	2.00006	3	3.00007	0	0	2	2.00003	1	1.00002	1	1.00001	75343	85707.8	1	1.00004	9	9.00078	135	135.035	13	13.0025	10	10.0019	12	12.003	14	14.0035	78	78.0607	4	4.0001	3	3.0001	22464	23277	136	136.033	19	19.0013	9	9.00075	10	10.0012	1	1.00002	70707	80171.3	9	9.00061	4	4.00019	35	35.0152	17	17.0044	45	45.0344	23	23.0049	37	37.009	9695	9842.51	7	7.00095	11	11.0016	10	10.0009	6	6.00097	59	59.0451	
23	220	114.994	305525	335336	35	35.0113	2	2.00007	56	56.0083	6	6.00089	1228	1230.46	49	49.0162	617	617.685	1534	1537.85	200	200.152	4046	4074.51	18	18.0088	71	71.0355	43	43.0228	28	28.0173	22	22.006	45	45.0143	49	49.0705	1001	1003.84	225	225.223	358	358.31	19	19.0276	11	11.0016	212	212.153	12	12.006	23	23.0065	9	9.00206	96	96.0358	405	405.305	8	8.00098	25	25.0216	2	2.00011	5	5.00109	25	25.0084	38	38.0041	13	13.0014	10	10.002	4	4.00015	1	1.00005	11	11.002	2	2.00004	1	1.00004	1	1.00006	3	3.00012	1	1.00001	5	5.00011	3	3.00012	0	0	5	5.00021	1	1.00001	90161	105557	6	6.00035	10	10.0009	117	117.029	15	15.0038	11	11.0028	18	18.005	19	19.0052	83	83.0672	4	4.00011	1	1.00003	26798	27964.2	115	115.026	17	17.0012	12	12.0015	11	11.0014	0	0	80771	93469.8	9	9.00089	12	12.0006	26	26.011	22	22.0061	43	43.0278	21	21.0044	33	33.0078	11001	11191.2	15	15.002	5	5.00062	9	9.00145	12	12.0025	64	64.0418	
24	230	120.221	334534	371730	36	36.0133	8	8.00034	62	62.0097	13	13.0023	1128	1130.08	42	42.0141	649	649.782	1507	1510.71	229	229.203	4065	4093.52	27	27.0134	79	79.0414	56	56.0309	19	19.0115	22	22.0062	58	58.0219	59	59.0932	1029	1031.9	245	245.265	364	364.329	18	18.0264	20	20.0034	214	214.166	12	12.0066	35	35.0142	14	14.0035	103	103.04	370	370.259	9	9.00077	28	28.0215	1	1.00009	4	4.0006	23	23.0087	41	41.0049	14	14.0023	1	1.00017	2	2.00006	3	3.00011	9	9.00163	7	7.00022	3	3.00012	4	4.00022	0	0	3	3.00006	1	1.00002	1	1.00002	0	0	4	4.00015	3	3.00007	100236	119793	3	3.00021	11	11.0014	134	134.041	13	13.0033	7	7.00174	11	11.0032	15	15.004	86	86.0669	2	2.00007	2	2.00008	29915	31378.2	125	125.027	24	24.0013	9	9.00108	24	24.0031	4	4.00011	88284	103777	4	4.00025	6	6.00027	34	34.0179	15	15.004	45	45.0359	12	12.0029	34	34.0092	12306	12545.6	10	10.0017	17	17.0021	7	7.00098	20	20.0039	70	70.0559	
25	240	125.448	285146	309546	36	36.0134	3	3.00005	53	53.0073	5	5.00072	1140	1142.12	48	48.0168	556	556.572	1401	1404.28	218	218.195	3584	3606.75	21	21.0115	85	85.05	65	65.0396	24	24.0163	28	28.0079	62	62.023	63	63.0927	993	995.82	216	216.217	298	298.228	16	16.0195	18	18.0022	179	179.129	17	17.009	25	25.008	21	21.0054	95	95.0386	316	316.218	4	4.00036	32	32.0269	3	3.00032	14	14.0024	22	22.0086	40	40.0044	9	9.00103	4	4.00056	4	4.00014	4	4.00017	17	17.0022	5	5.00014	3	3.00011	2	2.00013	3	3.00009	1	1.00002	5	5.00016	1	1.00002	1	1.00001	0	0	1	1.00001	81207	93429.1	4	4.00024	11	11.0009	126	126.033	19	19.004	10	10.0023	15	15.0041	17	17.0048	86	86.0737	3	3.00012	2	2.00006	24705	25692.4	104	104.019	12	12.0007	11	11.001	8	8.00086	3	3.00009	74803	85511	9	9.00058	10	10.0007	30	30.0142	19	19.0054	43	43.0304	14	14.0024	29	29.0058	10377	10546.8	9	9.00103	8	8.00088	7	7.00095	12	12.002	58	58.0411	
26	250	130.675	292412	318587	34	34.012	3	3.00011	46	46.0047	12	12.002	1064	1065.9	43	43.0165	556	556.592	1334	1336.9	212	212.177	3454	3475.2	26	26.0144	83	83.0478	54	54.0327	26	26.0179	21	21.0049	57	57.0234	65	65.0987	914	916.437	196	196.198	295	295.229	17	17.0206	13	13.002	183	183.132	10	10.0057	33	33.0125	14	14.0026	69	69.0221	331	331.235	8	8.00102	24	24.0192	3	3.00022	8	8.00158	21	21.0089	50	50.0066	8	8.00076	2	2.00042	6	6.00018	3	3.00011	13	13.0023	4	4.00012	6	6.00016	2	2.00009	3	3.00008	2	2.00003	1	1.00003	4	4.00007	3	3.0001	3	3.00013	1	1.00001	84418	97721.7	3	3.00019	11	11.0011	128	128.039	10	10.0026	8	8.00156	7	7.00161	17	17.0049	91	91.0706	2	2.00008	0	0	25016	26028.9	106	106.021	14	14.0007	18	18.0021	13	13.0013	3	3.00005	76773	88113.5	14	14.0012	3	3.00018	24	24.0115	15	15.0043	48	48.0398	16	16.0034	32	32.0093	10738	10919.5	12	12.0018	17	17.0021	8	8.00101	15	15.0028	61	61.0505	
27	260	135.902	325388	359867	32	32.0106	2	2.00008	64	64.0102	8	8.00154	1062	1063.88	38	38.0143	624	624.752	1324	1326.93	209	209.169	3281	3300.04	21	21.0119	73	73.0424	48	48.0292	26	26.0172	23	23.0065	56	56.0254	58	58.0869	892	894.464	224	224.238	275	275.214	25	25.03	12	12.0019	170	170.119	18	18.0103	28	28.0113	14	14.0033	81	81.0306	299	299.187	7	7.00058	33	33.0233	0	0	8	8.00147	19	19.0081	45	45.0057	7	7.00052	6	6.00105	4	4.00018	0	0	20	20.0039	6	6.00024	5	5.0002	1	1.00007	3	3.00008	2	2.00008	1	1.00002	1	1.00003	0	0	4	4.00016	2	2.00004	96856	114977	4	4.00027	8	8.00073	127	127.037	19	19.0054	9	9.00224	9	9.00263	20	20.0057	75	75.059	3	3.0001	2	2.00008	28610	29944.4	106	106.019	16	16.0013	12	12.0012	7	7.00088	3	3.00007	85573	99979.6	12	12.001	7	7.00031	31	31.0153	20	20.0057	54	54.0407	23	23.0051	32	32.0081	11671	11885.7	10	10.0013	13	13.0014	12	12.0016	17	17.0037	70	70.0527	
28	270	141.129	326924	361646	41	41.0151	1	1.00002	48	48.0066	12	12.0022	1085	1086.91	50	50.0186	596	596.654	1218	1220.47	179	179.132	3297	3316.38	18	18.0104	70	70.0412	45	45.0275	28	28.019	19	19.006	45	45.0163	63	63.0972	890	892.596	210	210.239	290	290.237	23	23.0287	16	16.0025	196	196.159	14	14.0083	30	30.0125	15	15.0032	87	87.0298	300	300.196	9	9.00108	37	37.026	1	1.00008	6	6.0011	21	21.0102	45	45.0058	7	7.00078	4	4.00085	7	7.00034	2	2.00011	16	16.0027	3	3.00005	4	4.00016	0	0	2	2.00007	1	1.00004	3	3.00009	0	0	3	3.00006	2	2.0001	0	0	97121	115360	1	1.00005	11	11.0009	113	113.032	21	21.0057	9	9.00229	9	9.00265	15	15.005	87	87.0761	5	5.00018	2	2.00003	29241	30636.3	89	89.0151	17	17.0013	13	13.0016	10	10.0012	4	4.00011	85522	99956.6	10	10.0008	8	8.00055	28	28.0123	14	14.0047	41	41.0323	30	30.0073	30	30.0077	11787	12006.2	18	18.0031	15	15.0018	10	10.0014	17	17.0033	51	51.0401	
29	280	146.356	260492	279755	23	23.0091	2	2.00004	38	38.004	6	6.00101	893	894.331	43	43.0151	437	437.368	999	1000.7	157	157.108	2712	2725.24	23	23.014	68	68.0421	44	44.0286	24	24.0169	9	9.00233	55	55.0214	59	59.0992	785	787.023	168	168.156	240	240.174	11	11.0116	14	14.0025	137	137.099	6	6.00342	23	23.0094	10	10.0024	73	73.0229	236	236.123	4	4.00035	23	23.0162	0	0	4	4.00081	20	20.0078	28	28.0021	4	4.0004	2	2.00028	3	3.00009	4	4.00018	16	16.0022	1	1.00003	2	2.00006	3	3.00018	3	3.00011	2	2.00004	1	1.00002	2	2.00005	1	1.00001	5	5.00028	2	2.00004	72116	81535.8	0	0	10	10.0009	111	111.03	12	12.0022	8	8.00135	12	12.0032	18	18.005	68	68.0493	1	1.00003	2	2.00007	21444	22182.6	83	83.0137	19	19.0012	10	10.001	7	7.00058	2	2.00003	67943	76639	6	6.00036	8	8.00028	36	36.0156	18	18.0051	43	43.0306	22	22.0036	33	33.0086	9328	9464.65	15	15.0025	9	9.00119	14	14.0014	12	12.0021	57	57.0406	
30	290	151.583	291995	317927	38	38.0149	3	3.00004	52	52.0066	12	12.0018	959	960.555	37	37.0143	509	509.508	1082	1083.99	179	179.133	2800	2814.18	12	12.0071	67	67.0412	48	48.0305	24	24.0173	16	16.006	36	36.0151	57	57.0913	755	756.938	188	188.201	234	234.168	14	14.0147	20	20.0034	149	149.11	15	15.0097	26	26.0104	11	11.002	88	88.033	261	261.146	8	8.00075	35	35.0245	0	0	7	7.00175	24	24.0101	34	34.0043	6	6.0007	3	3.00043	1	1.00006	5	5.00032	8	8.001	4	4.00015	5	5.0004	3	3.00011	1	1.00001	2	2.00004	2	2.00006	1	1.00003	1	1.00002	2	2.00007	4	4.00009	84379	97680.9	9	9.00065	9	9.00074	95	95.0232	19	19.0046	14	14.0034	12	12.0031	8	8.00237	80	80.055	0	0	3	3.00007	24784	25778.9	87	87.0142	15	15.0008	15	15.0018	12	12.0013	2	2.00005	76115	87227.4	9	9.0007	7	7.00036	29	29.0147	10	10.0029	41	41.0312	19	19.0036	23	23.0062	10391	10560.9	10	10.0012	9	9.00119	9	9.00158	22	22.0053	54	54.0411	
31	300	156.81	339066	377240	28	28.0111	8	8.00028	40	40.0046	14	14.0032	919	920.434	39	39.0155	569	569.629	1057	1058.88	201	201.167	2725	2738.76	18	18.0099	68	68.0384	47	47.0278	27	27.0179	20	20.0061	43	43.0172	71	71.1173	749	750.967	179	179.208	220	220.176	22	22.0242	22	22.0044	168	168.132	18	18.0119	23	23.0104	14	14.004	83	83.0336	276	276.159	8	8.00114	23	23.0145	5	5.00036	12	12.0021	28	28.0134	34	34.005	7	7.00072	7	7.00115	4	4.00014	6	6.00022	12	12.0016	5	5.00018	5	5.00029	3	3.00013	1	1.00004	2	2.00005	1	1.00003	4	4.00015	0	0	2	2.00004	1	1.00002	101899	122226	4	4.00022	8	8.00076	103	103.028	12	12.0037	13	13.0032	11	11.0031	11	11.003	103	103.089	3	3.00014	2	2.00008	30282	31784.1	90	90.0178	10	10.0006	13	13.0017	20	20.0026	1	1.00001	88848	104519	9	9.00067	5	5.00041	24	24.0116	14	14.0038	45	45.0348	17	17.0042	28	28.0078	12163	12396.6	15	15.0025	10	10.0011	14	14.0021	17	17.0033	62	62.0479	
32	310	162.037	257980	276440	21	21.0079	1	1.00003	34	34.0034	11	11.0015	850	851.201	47	47.0174	398	398.324	927	928.431	152	152.107	2380	2390.53	14	14.0076	45	45.0251	36	36.0202	19	19.0114	25	25.0075	30	30.0112	51	51.0813	681	682.657	157	157.144	201	201.144	21	21.0205	11	11.0014	122	122.085	16	16.0096	22	22.0092	9	9.00202	73	73.0282	212	212.104	8	8.0008	25	25.013	2	2.00012	14	14.0029	25	25.0105	30	30.0027	7	7.00056	5	5.00062	4	4.00014	1	1.00004	8	8.00094	1	1.00004	3	3.00013	1	1.00005	1	1.00003	1	1.00001	1	1.00002	3	3.0001	1	1.00002	3	3.00012	3	3.00008	71222	80393.1	1	1.00007	21	21.0024	93	93.0237	13	13.0021	10	10.002	7	7.00197	14	14.0036	86	86.0699	2	2.00005	0	0	21322	22052	61	61.0065	7	7.00042	17	17.0018	6	6.00057	2	2.00004	66114	74280.3	9	9.00079	4	4.00026	35	35.0166	14	14.0036	41	41.027	20	20.0042	38	38.0095	9227	9360.74	11	11.0016	10	10.0009	3	3.00041	15	15.0026	52	52.0343	
33	320	167.264	273144	294826	40	40.0172	5	5.00011	40	40.0044	4	4.00064	828	829.164	32	32.0108	492	492.473	947	948.553	184	184.151	2259	2268.64	19	19.0101	53	53.0285	34	34.0188	29	29.0171	15	15.0043	34	34.0117	71	71.1222	633	634.597	173	173.16	179	179.112	11	11.0095	17	17.0024	151	151.123	14	14.0094	21	21.0076	10	10.0026	59	59.0202	211	211.107	3	3.00034	20	20.0114	2	2.00016	10	10.002	23	23.009	28	28.0026	7	7.00067	4	4.00066	2	2.00007	3	3.00009	11	11.0018	3	3.00009	1	1.00005	3	3.00018	1	1.00006	1	1.00002	1	1.00003	3	3.00012	3	3.00007	3	3.0001	2	2.00002	77033	87915.9	4	4.0002	3	3.00018	66	66.0107	16	16.0035	9	9.00169	10	10.0025	15	15.0049	88	88.0731	1	1.00004	2	2.00009	22491	23306.2	69	69.009	11	11.0006	10	10.001	10	10.001	3	3.00006	70915	80444.9	7	7.00048	6	6.00036	26	26.0107	16	16.0052	50	50.0381	23	23.0057	20	20.0041	9567	9710.98	11	11.0017	8	8.00089	4	4.00041	13	13.0024	61	61.0466	
34	330	172.491	311799	342120	32	32.0138	1	1.00002	40	40.0041	5	5.00086	809	810.115	39	39.0141	548	548.581	889	890.348	180	180.133	2300	2309.99	15	15.0083	54	54.0301	33	33.0191	28	28.0173	23	23.0085	36	36.0145	60	60.1013	651	652.638	155	155.162	221	221.164	16	16.0169	18	18.003	162	162.138	18	18.0122	24	24.0107	5	5.00127	75	75.0284	228	228.121	6	6.00083	31	31.0175	3	3.00021	7	7.00143	18	18.0074	37	37.0049	3	3.00025	9	9.00142	2	2.00006	2	2.00007	9	9.00156	5	5.00016	3	3.00015	2	2.00009	2	2.00006	1	1.00002	1	1.00003	3	3.0001	5	5.00018	4	4.00016	2	2.00005	91314	107182	7	7.00046	9	9.00123	89	89.0237	17	17.0047	12	12.0031	15	15.0046	10	10.0026	81	81.0671	3	3.00015	0	0	27174	28374.8	77	77.012	6	6.00035	11	11.0012	12	12.0013	1	1.00002	80760	93447.4	6	6.00056	9	9.00081	26	26.0129	9	9.00235	51	51.0404	11	11.0026	19	19.0054	11179	11376.3	13	13.0026	9	9.00124	15	15.0021	14	14.0022	67	67.0534	
35	340	177.718	293104	319105	32	32.0126	3	3.00011	43	43.0051	11	11.0016	798	799.055	32	32.0134	486	486.46	853	854.291	170	170.141	2111	2119.59	13	13.0071	45	45.0248	25	25.0141	19	19.0114	18	18.0065	39	39.0165	61	61.1127	637	638.659	168	168.177	159	159.097	20	20.0169	16	16.0024	144	144.118	19	19.0129	23	23.0102	7	7.00155	62	62.0228	189	189.086	4	4.00054	21	21.012	3	3.00022	10	10.002	23	23.0101	28	28.0026	6	6.00061	7	7.00089	3	3.00013	3	3.00017	8	8.00107	0	0	0	0	6	6.00053	4	4.00012	2	2.00005	2	2.00008	0	0	1	1.00002	0	0	4	4.0001	85149	98731.9	4	4.00033	14	14.0018	102	102.027	17	17.0039	9	9.0022	11	11.0036	14	14.0038	94	94.0915	3	3.00008	1	1.00003	24361	25320.3	51	51.0052	8	8.00049	14	14.0015	9	9.00119	7	7.00037	75674	86616.1	7	7.00049	3	3.00017	23	23.0113	15	15.004	46	46.0362	13	13.0027	27	27.0076	10293	10459.8	17	17.003	13	13.0019	13	13.0022	11	11.002	60	60.0474	
36	350	182.945	247101	263656	32	32.011	3	3.00006	27	27.0027	8	8.00157	773	773.984	34	34.0129	400	400.315	800	801.116	140	140.099	1892	1898.85	18	18.0104	47	47.0276	26	26.0156	27	27.0171	12	12.0036	28	28.009	69	69.1239	521	522.248	127	127.118	171	171.114	16	16.0148	15	15.0022	125	125.091	11	11.0078	11	11.0043	3	3.00071	56	56.021	172	172.076	5	5.0006	21	21.0117	1	1.00007	6	6.00091	19	19.0084	24	24.0021	10	10.0008	5	5.00065	3	3.00012	3	3.00016	11	11.0017	2	2.00005	5	5.00031	3	3.00013	2	2.00005	1	1.00002	0	0	3	3.00004	5	5.00014	2	2.00011	1	1.00002	67099	75162.3	3	3.00021	7	7.00062	62	62.0106	17	17.003	7	7.00165	11	11.0036	16	16.0043	82	82.064	5	5.00013	2	2.00006	19630	20247.8	59	59.0059	10	10.0004	5	5.00039	10	10.0008	4	4.00009	63601	71098.4	9	9.00059	2	2.0001	26	26.011	18	18.0049	53	53.0397	8	8.00162	25	25.0068	8636	8753.22	13	13.0023	9	9.00082	6	6.00067	11	11.0016	66	66.0499	
37	360	188.172	292668	318405	36	36.0117	3	3.00013	19	19.0013	8	8.00127	796	797.096	38	38.0143	429	429.382	740	740.942	185	185.133	1869	1875.77	16	16.0103	63	63.0404	30	30.02	28	28.0201	17	17.0054	25	25.0091	70	70.1314	508	509.128	126	126.119	169	169.106	20	20.0174	11	11.0017	127	127.096	23	23.0162	21	21.0079	9	9.00253	65	65.0247	165	165.077	3	3.00028	15	15.0086	5	5.00031	5	5.00097	22	22.012	16	16.0013	7	7.00054	10	10.0012	1	1.00004	6	6.00027	9	9.00149	8	8.00031	5	5.00032	2	2.00008	3	3.00016	0	0	1	1.00004	1	1.00002	0	0	5	5.00014	3	3.00008	83832	96941.3	2	2.00014	9	9.00074	72	72.0137	10	10.0018	9	9.00204	14	14.0038	18	18.0054	98	98.0766	5	5.00021	1	1.00004	24785	25778.6	67	67.0098	8	8.00046	13	13.0015	8	8.00087	2	2.00005	76076	87192.4	8	8.00052	6	6.00035	31	31.0157	20	20.0061	35	35.0272	15	15.003	23	23.0062	10330	10497.7	15	15.0027	17	17.0018	14	14.0024	16	16.0026	55	55.0426	
38	370	193.399	326647	360716	29	29.0106	3	3.00011	32	32.0035	11	11.0023	756	757	35	35.0129	507	507.515	753	754.053	167	167.132	1884	1890.9	15	15.0086	52	52.0304	35	35.021	29	29.0187	10	10.0033	27	27.0105	56	56.1085	545	546.387	119	119.124	147	147.1	21	21.0188	10	10.0016	142	142.124	23	23.0193	34	34.0164	8	8.00185	53	53.0172	182	182.082	4	4.00056	24	24.0121	1	1.00009	3	3.00051	26	26.012	28	28.0032	9	9.00094	3	3.00031	4	4.00019	2	2.00009	12	12.0018	2	2.00005	1	1.00004	2	2.00009	1	1.00004	0	0	2	2.00006	0	0	0	0	3	3.00015	0	0	96778	114879	5	5.0004	6	6.00041	92	92.0236	18	18.0052	6	6.00125	11	11.0035	13	13.0047	98	98.0891	7	7.0004	4	4.00022	28614	29950.6	38	38.0035	11	11.0009	14	14.0014	11	11.0014	5	5.00018	84392	98386	11	11.001	2	2.00015	32	32.0149	15	15.0054	38	38.0297	16	16.0037	26	26.0072	11598	11809.9	15	15.0029	15	15.0024	12	12.0019	13	13.0032	53	53.0413	
39	380	198.626	317229	348724	42	42.0177	7	7.00022	30	30.0036	6	6.00091	718	718.902	32	32.0135	553	553.615	713	713.931	166	166.142	1730	1735.92	16	16.0099	53	53.0337	34	34.0223	24	24.0169	18	18.0064	29	29.0119	74	74.1385	517	518.251	121	121.117	153	153.106	19	19.017	23	23.0045	118	118.093	19	19.0131	23	23.0128	6	6.00162	66	66.0239	145	145.058	5	5.0006	26	26.0155	2	2.00015	3	3.00052	28	28.0124	15	15.0017	11	11.001	4	4.00065	2	2.0001	8	8.00045	14	14.0021	4	4.00009	7	7.00043	2	2.00008	2	2.00005	0	0	1	1.00002	1	1.00002	1	1.00003	5	5.0003	6	6.00015	92717	109147	3	3.00024	7	7.00095	71	71.0154	11	11.0028	8	8.0021	11	11.0036	12	12.004	95	95.0887	3	3.00015	0	0	28067	29349.8	54	54.0066	12	12.0005	12	12.0022	14	14.0014	2	2.00009	82105	95278	11	11.0008	5	5.00033	21	21.0101	12	12.004	40	40.0285	25	25.0065	27	27.0068	11402	11606.9	12	12.0017	15	15.0025	4	4.00059	11	11.0022	51	51.0363	
40	390	203.853	264186	283687	29	29.0111	5	5.00013	19	19.0012	8	8.00147	706	706.856	36	36.0139	414	414.351	609	609.684	118	118.085	1609	1614.21	16	16.01	54	54.0344	34	34.0222	18	18.0123	22	22.0076	35	35.0146	55	55.1036	456	457.064	131	131.127	134	134.077	12	12.0092	13	13.0024	119	119.09	16	16.0119	15	15.0064	9	9.00246	54	54.0174	152	152.065	10	10.0013	24	24.0126	1	1.00007	7	7.00157	19	19.0084	30	30.0035	9	9.00091	5	5.00075	4	4.00017	2	2.00009	12	12.0018	3	3.00014	3	3.00011	2	2.00005	1	1.00004	1	1.00001	0	0	4	4.00016	0	0	4	4.00013	1	1.00003	72733	82349.1	2	2.00013	15	15.0013	52	52.0098	17	17.0042	7	7.00195	11	11.0034	10	10.003	83	83.0598	0	0	1	1.00003	21693	22450.1	40	40.0039	17	17.0009	11	11.0012	12	12.001	2	2.00007	68046	76759	4	4.0002	3	3.00014	28	28.016	11	11.0033	37	37.0284	20	20.0041	15	15.004	9359	9496.72	14	14.0026	13	13.0016	8	8.0009	13	13.0023	54	54.0416	
41	400	209.08	291297	316462	30	30.0104	1	1.00003	23	23.0018	4	4.00078	644	644.703	30	30.0112	485	485.471	622	622.703	192	192.16	1537	1541.76	18	18.0117	53	53.0351	33	33.0224	28	28.0201	21	21.0074	27	27.0099	63	63.1151	448	449.047	102	102.1	119	119.079	16	16.0132	18	18.0039	103	103.081	14	14.0106	24	24.0113	5	5.00148	44	44.0157	133	133.056	6	6.0007	22	22.0094	4	4.00039	5	5.00117	18	18.0076	19	19.0021	4	4.00035	4	4.00051	1	1.00004	2	2.00005	12	12.0017	1	1.00004	5	5.00024	5	5.00024	2	2.00005	1	1.00004	2	2.00004	1	1.00002	2	2.00004	5	5.00025	1	1.00002	83144	96027.2	7	7.00046	6	6.00053	61	61.0124	15	15.0037	4	4.00103	10	10.0033	9	9.00254	99	99.0781	2	2.00009	3	3.00009	24472	25441.5	40	40.0044	11	11.0007	15	15.0017	12	12.0012	2	2.00004	75141	85950.8	7	7.0004	4	4.00025	26	26.0112	11	11.0031	28	28.0218	14	14.0029	25	25.0077	10054	10212.9	10	10.0016	12	12.0018	20	20.0029	13	13.0023	41	41.0315	
42	410	214.307	331515	367007	28	28.0101	3	3.00005	25	25.003	6	6.00099	688	688.828	46	46.0208	506	506.546	648	648.766	199	199.162	1516	1520.84	9	9.00563	49	49.0312	28	28.0182	28	28.0197	16	16.0065	33	33.0135	76	76.1417	426	426.97	119	119.128	134	134.084	12	12.0095	21	21.0033	108	108.088	12	12.0095	21	21.0106	12	12.0035	56	56.0198	131	131.055	9	9.00115	27	27.0133	6	6.00056	13	13.0028	25	25.0123	16	16.0016	9	9.00117	6	6.00075	3	3.0001	3	3.00014	12	12.0022	3	3.00007	2	2.00009	6	6.00024	2	2.00004	1	1.00003	2	2.00005	1	1.00002	2	2.00003	3	3.0002	1	1.00003	98607	117481	1	1.0001	13	13.0017	54	54.0101	10	10.0025	7	7.00182	12	12.0038	15	15.0047	88	88.084	3	3.00008	3	3.00013	29140	30528.4	38	38.0044	12	12.0011	14	14.0018	15	15.0018	7	7.00025	85948	100521	12	12.001	5	5.00034	29	29.0143	15	15.0047	46	46.037	15	15.0036	30	30.0084	11552	11762.6	13	13.0026	14	14.002	7	7.00127	16	16.0033	65	65.0527	
43	420	219.534	267497	287681	29	29.0118	5	5.00016	21	21.0017	6	6.001	647	647.718	33	33.0139	448	448.416	516	516.48	138	138.108	1307	1310.67	15	15.0106	40	40.0286	24	24.0175	22	22.0167	19	19.0071	30	30.0119	65	65.1297	411	411.97	95	95.091	114	114.069	10	10.0074	8	8.00111	110	110.09	17	17.0129	23	23.0113	11	11.0026	45	45.0119	121	121.05	4	4.00044	13	13.0067	4	4.00035	5	5.00111	22	22.0111	15	15.0012	5	5.00046	6	6.00055	2	2.00004	1	1.00003	10	10.0016	6	6.00017	6	6.00038	5	5.00021	3	3.00009	1	1.00003	3	3.00007	0	0	1	1.00001	1	1.00004	3	3.00009	74770	84972.3	5	5.00037	6	6.00057	51	51.0096	13	13.0029	9	9.00201	7	7.00184	10	10.0035	83	83.0681	3	3.0001	3	3.00012	21742	22502.7	46	46.005	11	11.0008	12	12.0014	15	15.0014	0	0	68376	77162.9	6	6.00041	5	5.00028	25	25.0125	14	14.005	51	51.0411	15	15.0035	19	19.005	9165	9296.81	16	16.0031	7	7.00075	8	8.00106	13	13.0022	67	67.0538	
44	430	224.761	282043	305202	27	27.0117	1	1.00001	26	26.0023	9	9.00178	620	620.68	31	31.0125	440	440.418	513	513.488	148	148.118	1324	1327.75	10	10.006	46	46.0289	38	38.0243	30	30.0213	9	9.00373	26	26.0095	77	77.1484	393	393.869	80	80.082	116	116.069	22	22.0171	12	12.0019	92	92.0664	16	16.0139	24	24.0135	8	8.00207	56	56.0219	135	135.063	8	8.00113	16	16.0069	5	5.00042	9	9.00173	27	27.0122	13	13.0009	7	7.00088	4	4.00052	5	5.00015	2	2.00009	6	6.00112	0	0	3	3.00014	2	2.00013	3	3.00004	2	2.00005	0	0	2	2.00007	1	1.00002	0	0	0	0	79862	91647.7	1	1.00008	3	3.00025	55	55.0111	18	18.0043	11	11.0021	11	11.0034	19	19.0065	82	82.0662	4	4.00018	0	0	23111	23972.3	41	41.0041	13	13.0008	8	8.00081	11	11.001	1	1.00003	72581	82599.6	13	13.001	7	7.00054	18	18.0089	20	20.0068	41	41.0318	14	14.0032	29	29.0081	9969	10125.6	11	11.0016	7	7.00099	11	11.0017	13	13.0026	59	59.0455	
45	440	229.988	315267	346112	34	34.0137	2	2.00007	22	22.0021	7	7.00119	643	643.752	32	32.0153	476	476.49	519	519.507	165	165.139	1271	1274.5	11	11.0072	34	34.0225	20	20.0133	33	33.0225	21	21.0084	19	19.0079	76	76.1433	387	387.938	106	106.105	111	111.067	20	20.0157	18	18.0032	108	108.09	17	17.0139	29	29.015	7	7.00188	53	53.0188	121	121.048	9	9.00119	20	20.0095	3	3.00028	7	7.00155	23	23.0105	14	14.0013	7	7.00084	7	7.00086	1	1.00005	1	1.00004	13	13.0016	1	1.00002	3	3.00015	1	1.00003	4	4.00021	0	0	2	2.00002	1	1.00002	1	1.00001	2	2.00012	1	1.00002	92335	108602	5	5.00032	9	9.00104	52	52.0105	15	15.0037	9	9.00189	10	10.003	16	16.0055	90	90.0751	2	2.00005	2	2.00006	27482	28711.6	45	45.0046	8	8.00049	12	12.0015	12	12.0013	1	1.00004	80977	93726.2	7	7.00068	4	4.00015	20	20.0091	18	18.0062	34	34.0259	16	16.0034	23	23.0071	11009	11200.2	11	11.0025	7	7.00091	10	10.0012	15	15.0024	48	48.0364	
46	450	235.215	287857	312345	29	29.0121	1	1.00004	32	32.0031	13	13.0029	611	611.636	41	41.0181	464	464.463	434	434.378	146	146.118	1206	1209.17	14	14.0099	41	41.0288	22	22.0157	30	30.0219	17	17.0058	22	22.0096	66	66.1268	329	329.705	98	98.103	96	96.0572	13	13.0094	17	17.0034	91	91.0676	25	25.0217	30	30.0145	13	13.0032	46	46.016	104	104.035	7	7.0008	17	17.008	2	2.00016	6	6.00135	29	29.0131	16	16.0019	5	5.00049	2	2.00027	2	2.00005	3	3.00009	8	8.00065	3	3.00013	1	1.00004	3	3.00016	1	1.00004	2	2.00005	3	3.00008	0	0	2	2.00002	4	4.0002	3	3.00007	82549	95213.9	5	5.00041	3	3.0003	47	47.0084	15	15.0036	10	10.0019	10	10.0023	14	14.0048	93	93.075	6	6.00023	2	2.00008	24095	25033.4	35	35.0025	7	7.0005	4	4.00039	9	9.0009	2	2.00005	73705	84074.3	12	12.0012	2	2.00007	29	29.015	13	13.0044	39	39.0258	13	13.0028	13	13.0036	10031	10189.2	7	7.00098	11	11.0013	15	15.0022	20	20.0042	52	52.0343	
47	460	240.442	244321	260253	27	27.0104	2	2.00003	20	20.0015	6	6.00104	560	560.558	33	33.0136	384	384.339	414	414.319	152	152.109	1020	1022.39	22	22.0158	52	52.0373	27	27.02	32	32.0245	15	15.0059	16	16.0045	69	69.1282	296	296.598	94	94.0925	97	97.0532	20	20.0132	13	13.002	85	85.06	13	13.0108	21	21.0091	13	13.0038	39	39.0118	103	103.037	11	11.0016	12	12.0059	4	4.00025	7	7.00131	18	18.0082	10	10.0009	7	7.00072	7	7.00057	7	7.0002	0	0	3	3.00038	3	3.00009	6	6.00029	0	0	3	3.00007	3	3.00006	1	1.00003	1	1.00003	0	0	4	4.00015	2	2.00004	66305	74163.1	4	4.0003	9	9.00082	41	41.0061	12	12.0023	2	2.00038	6	6.00125	7	7.00193	68	68.0475	3	3.00011	3	3.00009	18885	19455.7	50	50.0046	6	6.00023	10	10.001	10	10.0009	1	1.00002	62101	69246.5	3	3.0002	5	5.00024	19	19.0082	9	9.0025	44	44.0329	13	13.0031	14	14.0034	8382	8492.11	16	16.0022	4	4.00042	7	7.00101	11	11.0018	53	53.0396	
48	470	245.669	315698	345947	34	34.0154	0	0	14	14.0014	8	8.00147	604	604.659	44	44.0193	485	485.485	476	476.448	175	175.145	1086	1088.74	12	12.0087	37	37.0269	19	19.014	44	44.0325	24	24.0105	19	19.0081	75	75.1501	321	321.703	92	92.0992	107	107.066	13	13.01	16	16.003	93	93.0779	16	16.0143	27	27.0162	12	12.0038	46	46.0161	114	114.044	7	7.00082	22	22.0097	6	6.00071	8	8.00202	25	25.0127	13	13.0012	9	9.00087	4	4.00043	2	2.00009	0	0	9	9.00146	0	0	2	2.00012	2	2.00012	6	6.00031	2	2.00003	1	1.00004	1	1.00005	0	0	3	3.00013	0	0	90727	106387	5	5.00029	13	13.0015	41	41.0073	17	17.0048	11	11.0028	13	13.0043	16	16.0052	83	83.0744	2	2.00006	1	1.00002	26987	28172	47	47.0052	11	11.0005	13	13.0015	17	17.0022	2	2.00004	80906	93698.4	7	7.00062	4	4.00021	19	19.0096	16	16.0052	43	43.0339	10	10.003	18	18.0058	11058	11251.2	12	12.0021	7	7.00084	18	18.0028	7	7.00125	56	56.0442	
49	480	250.896	334270	369654	32	32.0123	4	4.00014	12	12.001	11	11.0023	582	582.611	38	38.017	506	506.521	430	430.375	164	164.131	1112	1114.84	8	8.00597	41	41.0312	27	27.0207	27	27.021	15	15.0065	31	31.0131	79	79.1637	362	362.838	100	100.106	107	107.068	19	19.0147	19	19.004	99	99.0822	21	21.0192	29	29.0179	11	11.0038	50	50.0187	119	119.045	8	8.00091	12	12.0053	1	1.0001	7	7.00131	19	19.0092	15	15.0013	13	13.0013	8	8.00078	5	5.00024	4	4.00022	12	12.0016	3	3.00006	2	2.00011	2	2.00007	2	2.00009	2	2.00006	3	3.00005	1	1.00004	0	0	1	1.00004	0	0	98347	117122	3	3.00023	10	10.0012	60	60.0104	25	25.0077	7	7.00197	13	13.0045	10	10.0032	88	88.0766	6	6.00013	1	1.00002	28980	30351.8	31	31.0026	9	9.00047	13	13.002	11	11.0016	4	4.0001	85900	100466	5	5.00039	6	6.00035	43	43.0211	14	14.0046	53	53.0417	10	10.0025	25	25.0067	11687	11902.7	20	20.0039	11	11.0015	12	12.0018	19	19.0041	72	72.0568	
50	490	256.123	268746	288307	32	32.0139	1	1.00002	16	16.0016	10	10.002	605	605.623	38	38.0152	400	400.352	389	389.292	153	153.114	1010	1012.38	10	10.0068	38	38.0259	21	21.0144	31	31.0214	13	13.0054	19	19.0076	69	69.1375	289	289.628	91	91.0893	85	85.0434	12	12.0076	19	19.0029	72	72.0632	24	24.0218	31	31.0163	12	12.0035	34	34.0112	106	106.042	7	7.00099	17	17.0072	2	2.00019	11	11.0024	32	32.0163	8	8.00079	10	10.0014	3	3.00027	5	5.00017	5	5.00022	12	12.0019	1	1.00003	3	3.00016	1	1.00005	2	2.00007	2	2.00006	1	1.00004	4	4.00008	1	1.00001	4	4.00015	2	2.00004	72751	82375.1	3	3.00022	5	5.00044	34	34.0065	10	10.0022	9	9.00213	10	10.0023	8	8.00215	87	87.0691	4	4.00016	5	5.00018	22032	22814.5	39	39.0037	8	8.00048	10	10.0011	10	10.001	6	6.00018	68011	76719.9	8	8.00058	7	7.00034	13	13.0061	10	10.0027	38	38.0295	10	10.0019	18	18.0057	9464	9604.81	12	12.0022	11	11.0017	13	13.0021	10	10.0016	56	56.0436	
51	500	261.35	290507	314654	23	23.0083	7	7.00015	15	15.0012	5	5.00103	587	587.611	45	45.0229	414	414.36	358	358.262	150	150.121	928	930.179	12	12.0089	46	46.034	26	26.0196	35	35.028	15	15.0069	22	22.0086	75	75.1579	316	316.693	78	78.0842	102	102.067	20	20.0161	14	14.0029	73	73.0593	23	23.0223	28	28.0162	9	9.0024	42	42.0148	93	93.033	6	6.00085	15	15.0061	6	6.00065	7	7.00166	20	20.0107	7	7.00071	10	10.0007	12	12.0011	4	4.0002	4	4.0002	14	14.0026	3	3.00015	4	4.00026	1	1.00002	3	3.00012	0	0	3	3.00007	0	0	0	0	2	2.0001	1	1.00003	81307	93567.3	9	9.00051	7	7.00063	47	47.0114	18	18.0045	4	4.00106	7	7.00171	14	14.004	80	80.0632	4	4.00012	1	1.00003	23956	24884.3	37	37.0028	11	11.0008	6	6.00049	9	9.00075	4	4.00009	73880	84313.8	7	7.00054	3	3.00018	21	21.0109	14	14.0041	46	46.0349	12	12.0026	21	21.0052	10156	10318.4	10	10.0017	10	10.0014	16	16.0027	14	14.0029	59	59.0447	
52	510	266.577	325830	358614	29	29.0135	3	3.00017	19	19.0015	6	6.00097	576	576.594	31	31.0133	457	457.466	368	368.281	145	145.124	984	986.366	15	15.0114	58	58.0451	39	39.0312	28	28.0237	12	12.0056	26	26.0113	68	68.1452	310	310.746	84	84.0928	97	97.0614	15	15.011	12	12.0024	74	74.0558	32	32.0304	35	35.0188	17	17.0058	41	41.0139	82	82.0265	13	13.0019	17	17.0072	3	3.00032	4	4.00112	16	16.0073	10	10.0009	7	7.00076	5	5.00049	4	4.0002	3	3.00016	14	14.0021	3	3.00011	4	4.00032	4	4.00016	3	3.00015	2	2.00004	3	3.00006	0	0	0	0	2	2.00008	3	3.00011	94367	111478	4	4.0003	8	8.00125	35	35.0058	15	15.0047	6	6.00173	12	12.0041	18	18.0074	77	77.07	3	3.00013	3	3.00012	27565	28803.2	37	37.0032	10	10.0006	15	15.0019	9	9.00109	1	1.00001	83812	97598.1	12	12.001	7	7.00043	32	32.0168	21	21.0087	35	35.0291	14	14.0033	17	17.0057	11484	11692	9	9.00154	16	16.0025	17	17.0032	7	7.00103	50	50.0415	
53	520	271.804	340075	376585	37	37.0159	2	2.0001	15	15.0014	11	11.0021	564	564.571	28	28.0127	530	530.588	351	351.267	175	175.15	883	884.95	5	5.00353	39	39.0279	19	19.0137	39	39.0297	23	23.0108	21	21.0084	70	70.145	285	285.645	75	75.0819	76	76.0474	21	21.0148	14	14.0028	102	102.096	29	29.0282	36	36.0201	15	15.0044	38	38.0144	85	85.0361	6	6.0009	15	15.0066	2	2.00022	9	9.00197	26	26.0139	8	8.00106	3	3.0003	2	2.00022	3	3.00013	2	2.0001	6	6.00066	2	2.00007	4	4.00015	7	7.00036	2	2.00007	2	2.00005	1	1.00004	1	1.00002	0	0	2	2.00015	2	2.00005	99778	119166	8	8.00055	8	8.00119	51	51.0095	21	21.0069	8	8.002	9	9.00296	14	14.0048	104	104.095	4	4.00012	3	3.00016	30102	31588	31	31.0025	4	4.00018	8	8.00146	9	9.00101	1	1.00002	86819	101746	7	7.00066	7	7.00045	29	29.0148	15	15.0051	45	45.0328	18	18.0041	27	27.0071	12056	12285.9	12	12.0017	9	9.0012	9	9.00164	13	13.0026	61	61.0449	
54	530	277.031	255752	272834	33	33.0146	1	1.00003	13	13.0008	14	14.0032	516	516.481	25	25.0094	346	346.275	301	301.182	112	112.087	835	836.87	10	10.0066	47	47.0312	25	25.0169	27	27.0187	21	21.0086	22	22.0093	79	79.166	249	249.531	78	78.0861	76	76.0439	10	10.0068	16	16.0032	73	73.0559	25	25.0242	25	25.0137	7	7.00199	30	30.0078	82	82.0326	6	6.00072	13	13.0049	4	4.00038	6	6.00125	26	26.0121	10	10.0007	9	9.00086	6	6.00054	3	3.00011	1	1.00004	5	5.00082	2	2.00007	2	2.00014	4	4.00022	1	1.00002	2	2.00005	1	1.00003	1	1.00003	0	0	1	1.00003	2	2.00003	67910	76187.8	4	4.00038	9	9.00105	30	30.0044	17	17.0043	8	8.00169	12	12.0028	11	11.0037	82	82.0759	6	6.00024	4	4.00016	19936	20574.2	21	21.0015	12	12.0008	10	10.0012	7	7.00069	3	3.00015	64493	72251.8	4	4.00027	6	6.00023	23	23.0116	14	14.0047	36	36.0265	6	6.00125	21	21.0065	8897	9021.46	8	8.00142	5	5.00062	9	9.00149	13	13.003	48	48.0353	
55	540	282.258	288616	312467	29	29.0124	2	2.00005	14	14.0012	9	9.00199	524	524.51	38	38.0184	426	426.401	309	309.195	138	138.104	790	791.577	12	12.0091	42	42.0319	25	25.0193	30	30.0241	16	16.0067	23	23.0099	73	73.1528	260	260.565	75	75.0777	67	67.0416	12	12.0081	22	22.0046	72	72.0562	27	27.0257	32	32.0209	8	8.0028	33	33.0144	76	76.0316	3	3.00037	13	13.0054	5	5.00051	10	10.0026	26	26.0144	6	6.00075	11	11.001	2	2.0002	4	4.00019	0	0	7	7.0008	1	1.00003	2	2.00014	3	3.00017	2	2.00005	1	1.00002	4	4.00015	2	2.00007	2	2.00006	2	2.00009	1	1.00003	80817	92931.6	4	4.00024	6	6.00068	41	41.0075	7	7.00149	6	6.00136	11	11.0029	11	11.0035	84	84.0667	4	4.00015	1	1.00002	23577	24475.9	32	32.0022	6	6.00029	5	5.0006	6	6.00048	1	1.00002	73486	83791	10	10.0006	3	3.00021	26	26.0124	17	17.0054	33	33.023	12	12.0022	21	21.0067	9816	9967.55	14	14.002	16	16.0028	13	13.0017	10	10.0019	46	46.032	
56	550	287.485	323026	354917	28	28.0119	4	4.00011	13	13.001	7	7.00156	507	507.462	27	27.0108	465	465.461	290	290.207	152	152.125	772	773.603	14	14.0107	37	37.028	21	21.016	31	31.0234	15	15.0072	17	17.0084	73	73.1558	231	231.551	66	66.0714	79	79.0432	12	12.0075	17	17.0041	89	89.0782	20	20.0208	39	39.0223	7	7.00207	41	41.0145	69	69.0226	2	2.00017	6	6.00226	3	3.00034	9	9.00215	15	15.007	12	12.0011	5	5.00045	5	5.00049	5	5.00028	5	5.00027	7	7.00118	3	3.00009	4	4.00027	3	3.00019	3	3.00011	2	2.00009	1	1.00002	3	3.00006	1	1.00004	0	0	4	4.00012	93298	109971	7	7.00061	11	11.0015	27	27.0049	15	15.0038	13	13.0038	5	5.00166	15	15.0049	86	86.0722	3	3.00017	4	4.00016	27532	28766.9	28	28.0017	6	6.00027	7	7.00064	11	11.0014	2	2.00005	82591	95918.7	9	9.00056	4	4.00023	29	29.015	15	15.0049	36	36.0262	14	14.0035	27	27.0082	11251	11450.6	16	16.0031	12	12.0017	12	12.0019	16	16.003	50	50.0362	
57	560	292.712	299923	326252	29	29.0134	0	0	17	17.0016	12	12.0028	483	483.416	30	30.0115	436	436.405	244	244.137	140	140.111	678	679.317	11	11.0085	45	45.0348	25	25.0197	37	37.0304	19	19.0076	20	20.0088	63	63.1408	234	234.479	85	85.0918	65	65.0341	14	14.0083	14	14.0032	91	91.071	18	18.0172	33	33.0189	12	12.0039	38	38.0127	63	63.0193	3	3.0004	14	14.006	8	8.00087	2	2.00049	13	13.006	9	9.00074	7	7.00065	5	5.00056	2	2.00007	2	2.00007	7	7.00109	2	2.00007	8	8.00049	3	3.00015	2	2.00008	1	1.00004	2	2.00004	0	0	1	1.00004	3	3.0001	5	5.00011	85162	98755.2	3	3.00023	3	3.00027	52	52.0115	18	18.0046	8	8.00189	9	9.0036	11	11.004	99	99.0811	1	1.00002	2	2.00008	24686	25674.1	33	33.0027	5	5.00033	16	16.002	11	11.0008	1	1.00001	76251	87443.8	6	6.00045	8	8.00045	24	24.0117	13	13.0047	37	37.025	13	13.0036	29	29.0102	10525	10698.9	10	10.0018	11	11.0016	13	13.0021	11	11.0022	51	51.0348	
58	570	297.939	244500	259843	25	25.0098	1	1.00002	7	7.00062	15	15.0032	469	469.406	26	26.0122	347	347.266	249	249.133	109	109.071	611	612.128	8	8.00632	39	39.031	19	19.0151	37	37.029	21	21.0093	10	10.0041	77	77.1676	194	194.38	71	71.0696	77	77.0461	11	11.0072	6	6.00102	69	69.0491	21	21.0197	28	28.016	9	9.0027	24	24.0078	59	59.0155	8	8.00099	20	20.0068	3	3.0002	3	3.00062	26	26.0124	10	10.0009	4	4.00041	9	9.0009	5	5.00031	8	8.00058	6	6.00075	1	1.00002	4	4.00023	1	1.00007	1	1.00001	0	0	2	2.00005	1	1.00003	0	0	2	2.00005	2	2.00001	64569	71993	2	2.00014	4	4.00037	41	41.009	11	11.0021	9	9.00175	12	12.0032	13	13.0044	102	102.082	2	2.00006	2	2.00012	18987	19565.2	20	20.0013	14	14.0009	9	9.00088	6	6.00052	4	4.0001	61391	68362.6	7	7.00065	3	3.00017	18	18.0094	14	14.0047	37	37.0262	9	9.00205	16	16.0041	8355	8464.69	20	20.0035	6	6.00074	10	10.0012	4	4.00059	47	47.0334	
59	580	303.166	292566	317196	33	33.0145	4	4.00009	6	6.00042	5	5.00114	461	461.381	25	25.0103	431	431.395	275	275.164	125	125.1	641	642.173	3	3.0024	50	50.0406	30	30.0248	25	25.0208	9	9.00344	10	10.0051	68	68.1401	236	236.52	58	58.0575	62	62.0383	16	16.011	9	9.0024	68	68.0586	16	16.0158	22	22.0142	7	7.00196	34	34.0118	74	74.0271	10	10.0013	17	17.0059	2	2.00015	13	13.0028	28	28.0151	8	8.00074	7	7.00054	2	2.00019	2	2.00009	4	4.00022	6	6.00111	3	3.00019	1	1.00006	3	3.00022	3	3.00007	1	1.00003	4	4.0001	0	0	1	1.00002	5	5.00019	1	1.00001	82626	95340.9	4	4.00036	7	7.00062	26	26.0037	13	13.0033	7	7.00164	9	9.00278	12	12.0033	103	103.088	4	4.00015	2	2.00012	24303	25258.9	23	23.0017	12	12.001	8	8.00067	16	16.0016	4	4.0001	73889	84321.4	10	10.0011	4	4.00015	28	28.0146	12	12.0033	45	45.0367	11	11.0022	18	18.0059	9989	10146.3	15	15.0024	11	11.0014	12	12.0014	15	15.0031	55	55.0447	
60	590	308.393	328158	362169	38	38.0187	3	3.00011	13	13.0013	14	14.0032	423	423.355	22	22.0096	436	436.416	261	261.153	118	118.093	652	653.238	11	11.0087	51	51.0402	21	21.0168	37	37.0302	10	10.005	17	17.0074	72	72.1498	254	254.545	68	68.0799	67	67.0421	11	11.0074	13	13.0028	85	85.0727	21	21.0193	27	27.0153	16	16.0052	46	46.0184	65	65.0231	15	15.0022	10	10.004	2	2.00024	5	5.00116	26	26.0135	5	5.00052	7	7.00063	6	6.0005	2	2.00011	5	5.00034	8	8.00128	0	0	2	2.00013	2	2.00011	1	1.00004	4	4.00018	1	1.00002	1	1.00003	1	1.00002	1	1.00003	1	1.00002	97063	115296	1	1.00007	10	10.001	38	38.0075	18	18.005	5	5.00149	11	11.0036	17	17.0058	87	87.069	5	5.00015	1	1.00004	28194	29492.8	26	26.0016	6	6.00043	11	11.0016	9	9.00116	1	1.00003	83814	97600.1	7	7.00047	11	11.0008	19	19.0108	17	17.0058	31	31.0231	14	14.0039	15	15.005	11394	11598.9	10	10.0017	15	15.0021	13	13.0017	15	15.0029	38	38.0281	
61	600	313.62	271069	291070	18	18.008	2	2.00004	11	11.0008	15	15.0035	415	415.345	26	26.0112	392	392.34	220	220.11	110	110.087	592	593.021	9	9.00603	42	42.0283	19	19.013	26	26.0176	14	14.0061	17	17.0077	71	71.1385	201	201.433	56	56.0551	56	56.0275	16	16.0091	12	12.0023	70	70.0507	27	27.0242	19	19.0114	10	10.003	29	29.0094	60	60.0217	5	5.00069	11	11.0041	3	3.0003	6	6.00183	21	21.0101	8	8.00086	4	4.00038	5	5.00039	1	1.00004	5	5.00022	6	6.00102	0	0	13	13.001	2	2.00011	1	1.00004	2	2.00005	1	1.00002	2	2.00003	1	1.00001	2	2.0001	2	2.00007	74157	84185.7	2	2.00013	10	10.001	28	28.004	15	15.0037	9	9.00231	9	9.00275	14	14.005	83	83.0649	3	3.00008	3	3.00017	22074	22860.5	15	15.0009	13	13.0008	9	9.00088	6	6.0004	0	0	68108	76837.5	7	7.00054	1	1.00005	22	22.0105	16	16.0058	37	37.0254	15	15.0038	20	20.0064	9552	9694.95	11	11.0018	10	10.0013	16	16.0021	15	15.0032	47	47.0324	
62	610	318.847	279013	300799	22	22.0087	6	6.0002	10	10.0008	12	12.0028	405	405.31	28	28.0133	339	339.263	211	211.116	120	120.096	586	587.037	7	7.00599	41	41.0351	23	23.0198	22	22.0188	12	12.0056	23	23.0104	79	79.1508	185	185.377	62	62.0686	52	52.0299	11	11.0069	10	10.0022	74	74.0601	12	12.0118	30	30.0157	6	6.00161	25	25.009	41	41.0103	11	11.0015	18	18.0054	3	3.00026	10	10.0022	28	28.0159	8	8.00067	8	8.00085	3	3.0004	2	2.00006	2	2.00007	6	6.00071	2	2.00009	6	6.00041	1	1.00005	2	2.00005	1	1.00001	3	3.00004	1	1.00001	1	1.00003	2	2.00007	0	0	77444	88471.5	1	1.0001	11	11.0014	35	35.0066	8	8.00187	4	4.00089	7	7.0019	16	16.0056	75	75.0588	5	5.00026	5	5.00016	22499	23315.9	18	18.001	6	6.00027	9	9.00087	9	9.00081	5	5.00018	70618	80062.6	6	6.00039	6	6.00033	24	24.0123	17	17.006	35	35.0233	9	9.00228	19	19.0054	9623	9768.78	11	11.0016	15	15.0018	16	16.0027	18	18.0036	51	51.0336	
63	620	324.074	303427	330831	42	42.0206	6	6.00024	4	4.00027	10	10.0018	395	395.286	23	23.0112	404	404.37	210	210.11	128	128.094	566	567.016	10	10.0072	39	39.0283	23	23.0169	27	27.0198	10	10.0044	24	24.0111	71	71.1468	196	196.394	60	60.0609	51	51.0289	8	8.00453	16	16.0032	63	63.052	17	17.0162	26	26.0157	13	13.0032	30	30.0101	48	48.0154	8	8.00123	18	18.0058	2	2.00021	8	8.00261	31	31.0162	6	6.00055	5	5.00049	6	6.00069	2	2.00011	2	2.0001	6	6.00081	2	2.00007	5	5.00033	3	3.00008	3	3.00014	1	1.00002	1	1.00003	1	1.00002	0	0	3	3.00008	1	1.00001	87544	101996	3	3.00031	10	10.0015	34	34.0064	9	9.00226	8	8.00223	11	11.0035	15	15.0056	100	100.086	3	3.00015	5	5.00029	25533	26591.5	18	18.0012	13	13.0008	13	13.0014	6	6.00073	1	1.00003	76719	88044.3	5	5.00045	6	6.00044	25	25.0118	15	15.0056	43	43.031	13	13.0035	23	23.0069	10515	10689	13	13.0023	9	9.0013	14	14.0023	20	20.0035	59	59.0429	
64	630	329.301	322971	355576	32	32.014	7	7.00034	7	7.00063	8	8.00182	396	396.303	32	32.0156	452	452.435	229	229.129	134	134.106	546	546.922	8	8.0064	55	55.0434	23	23.0187	29	29.024	17	17.0074	26	26.0132	65	65.145	209	209.445	63	63.0746	61	61.0364	22	22.0145	12	12.0024	73	73.0566	26	26.0241	27	27.0168	5	5.0015	21	21.008	50	50.0143	9	9.00124	16	16.005	3	3.00029	9	9.00284	19	19.0104	10	10.001	6	6.00045	1	1.00011	1	1.00006	2	2.00011	7	7.00109	4	4.00017	4	4.00033	3	3.00015	1	1.00004	0	0	3	3.00005	0	0	0	0	2	2.00011	1	1.00002	95039	112432	3	3.00018	7	7.00065	23	23.0042	12	12.003	6	6.00151	12	12.0036	15	15.0052	81	81.0674	5	5.00024	3	3.00011	27690	28939.9	24	24.0018	9	9.0005	12	12.0016	10	10.0008	1	1.00002	82450	95766.3	12	12.0011	7	7.00047	23	23.0126	16	16.0056	34	34.0244	12	12.0035	21	21.0066	11113	11307.8	12	12.0021	6	6.00089	12	12.0019	19	19.0036	52	52.0375	
65	640	334.528	263849	282079	28	28.0129	8	8.00025	9	9.00065	8	8.00167	452	452.384	22	22.0091	339	339.271	199	199.094	94	94.0662	452	452.71	7	7.00583	43	43.0352	20	20.0166	35	35.0302	12	12.0056	18	18.0082	80	80.167	166	166.365	67	67.0629	59	59.0345	16	16.0109	17	17.003	65	65.0485	19	19.0172	29	29.019	14	14.0041	24	24.0079	35	35.0092	6	6.0007	7	7.00252	1	1.00012	4	4.00094	14	14.0072	7	7.00066	2	2.00024	4	4.00035	1	1.00003	1	1.00003	9	9.00086	3	3.00007	4	4.00025	4	4.0002	1	1.00004	0	0	2	2.00005	2	2.00005	2	2.00004	2	2.00006	1	1.00002	70494	79468.6	1	1.00007	7	7.00101	23	23.0045	14	14.0035	9	9.00196	12	12.0029	6	6.00168	73	73.053	3	3.00015	0	0	20782	21475.9	17	17.001	10	10.0004	10	10.001	10	10.0009	3	3.00013	65937	74049	2	2.00021	6	6.00033	21	21.0099	10	10.0028	36	36.0274	8	8.00198	27	27.0077	9068	9197.05	13	13.0017	13	13.002	10	10.0013	15	15.0029	48	48.0366	
66	650	339.755	282352	303917	42	42.0223	3	3.00005	9	9.00068	7	7.00217	418	418.329	26	26.0113	376	376.328	161	161.071	114	114.094	491	491.844	5	5.00409	45	45.0369	22	22.018	28	28.0232	16	16.0065	17	17.0086	76	76.1636	168	168.373	41	41.0443	57	57.0355	16	16.0105	15	15.0034	57	57.0487	27	27.0297	29	29.0193	9	9.00242	23	23.0092	36	36.0121	6	6.00072	8	8.00211	1	1.00013	6	6.00156	19	19.0095	6	6.00037	6	6.00053	0	0	5	5.00028	3	3.00014	8	8.00111	2	2.00007	3	3.00023	1	1.00004	2	2.00005	2	2.00007	1	1.00003	4	4.00011	1	1.00002	1	1.00005	0	0	76514	87254.4	4	4.00027	11	11.0016	20	20.0034	17	17.0038	7	7.00158	6	6.00179	12	12.0045	88	88.0747	2	2.00009	3	3.00012	22182	22975.5	12	12.0005	9	9.00079	9	9.00139	9	9.00088	1	1.00004	70797	80321	5	5.00038	10	10.0007	18	18.0097	11	11.0041	47	47.0382	14	14.0034	28	28.0085	9748	9897.36	12	12.0025	16	16.0026	13	13.0017	14	14.0027	58	58.0472	
67	660	344.982	325698	357075	36	36.0186	1	1.00003	8	8.00062	8	8.00233	403	403.306	32	32.0169	485	485.514	183	183.089	156	156.148	501	501.834	9	9.00757	43	43.0362	21	21.0178	24	24.0205	20	20.009	22	22.0107	64	64.1442	201	201.48	53	53.0576	52	52.0315	16	16.0101	17	17.0031	68	68.0646	21	21.0227	33	33.0235	11	11.0038	24	24.0097	26	26.0076	6	6.00082	16	16.0066	4	4.00056	6	6.00192	24	24.0132	5	5.00057	6	6.0007	7	7.00065	7	7.00045	1	1.00006	8	8.00121	1	1.00005	2	2.00012	2	2.00013	4	4.00015	1	1.00002	0	0	1	1.00004	0	0	4	4.00024	3	3.00005	92261	108540	6	6.00055	8	8.00089	22	22.0041	11	11.0031	8	8.00201	6	6.00215	16	16.0054	88	88.0698	4	4.00021	2	2.00004	27449	28677.9	26	26.0021	8	8.00056	13	13.0016	6	6.00067	5	5.00013	82121	95307.8	13	13.0011	4	4.0002	20	20.0097	19	19.0065	44	44.0343	11	11.0028	18	18.005	11302	11503.7	11	11.0022	15	15.0021	10	10.0014	7	7.00126	55	55.0428	
68	670	350.209	352647	391621	34	34.0179	3	3.00011	9	9.00073	9	9.00221	397	397.332	28	28.0136	549	549.662	172	172.083	155	155.144	492	492.837	14	14.0123	59	59.0515	27	27.0241	25	25.0223	19	19.0098	18	18.008	70	70.1724	195	195.463	49	49.0599	54	54.0372	14	14.0101	13	13.0034	81	81.0688	14	14.0148	28	28.0197	8	8.00315	34	34.0125	50	50.0171	5	5.0008	17	17.0054	3	3.00036	9	9.00248	19	19.0112	8	8.00092	2	2.00013	9	9.00104	2	2.00014	5	5.00033	8	8.00125	1	1.00005	6	6.00043	3	3.00016	4	4.0001	1	1.00002	3	3.00005	1	1.00004	0	0	3	3.00016	1	1.00003	102819	123624	1	1.00013	12	12.0022	27	27.0047	24	24.0077	12	12.004	14	14.0053	19	19.008	100	100.09	0	0	0	0	30550	32080.2	27	27.0026	6	6.00047	10	10.0017	13	13.0018	1	1.00003	89234	105091	8	8.00046	5	5.00025	22	22.0117	18	18.0076	40	40.0338	19	19.0049	11	11.0036	12178	12413	10	10.002	15	15.0022	11	11.0017	13	13.0032	55	55.0464	
69	680	355.436	294113	317976	22	22.0105	0	0	9	9.00076	7	7.00146	385	385.292	36	36.0199	379	379.335	153	153.066	127	127.11	425	425.702	8	8.0064	42	42.0338	19	19.0153	32	32.0266	18	18.0092	19	19.0096	80	80.1862	162	162.368	53	53.0579	52	52.0311	20	20.0132	11	11.0022	69	69.0631	21	21.0231	26	26.0193	12	12.0041	30	30.0096	51	51.0157	5	5.00057	12	12.0039	3	3.00033	6	6.0013	29	29.0165	9	9.00106	7	7.00089	3	3.00031	2	2.00009	2	2.00009	9	9.00148	2	2.00008	4	4.00029	3	3.00015	1	1.00004	0	0	5	5.00011	0	0	1	1.00003	1	1.00003	1	1.00003	80387	92368.6	2	2.00021	9	9.00105	18	18.0028	11	11.003	8	8.0018	7	7.00227	16	16.0069	101	101.079	7	7.00034	2	2.00008	24045	24982.8	16	16.001	7	7.00049	13	13.0018	8	8.0008	3	3.00012	73743	84139.5	6	6.00048	4	4.00015	21	21.0113	16	16.0069	35	35.0263	10	10.003	22	22.006	10242	10407.6	12	12.0018	14	14.0019	19	19.0028	17	17.0036	53	53.0395	
70	690	360.663	294339	318048	31	31.0152	1	1.00002	3	3.00022	7	7.00179	363	363.267	25	25.0111	372	372.331	175	175.08	109	109.082	385	385.587	7	7.00571	42	42.0338	17	17.0138	27	27.0216	14	14.0072	14	14.0066	79	79.1776	172	172.376	49	49.0572	37	37.0204	16	16.0091	13	13.0032	64	64.0574	19	19.0197	25	25.0181	5	5.00161	32	32.0125	36	36.0098	7	7.00119	12	12.004	3	3.00036	10	10.0033	27	27.0142	4	4.00022	11	11.0012	5	5.00037	2	2.00008	2	2.00009	9	9.00131	3	3.00009	2	2.00018	3	3.00016	0	0	1	1.00003	2	2.00004	0	0	1	1.00003	3	3.00019	3	3.00008	80226	92151.4	5	5.00046	13	13.0015	23	23.004	18	18.0047	2	2.00056	13	13.0046	15	15.0062	80	80.0635	6	6.00036	0	0	23957	24887.3	9	9.00048	9	9.00072	8	8.00067	8	8.00063	2	2.00006	73494	83807.7	7	7.00064	3	3.00011	27	27.0141	16	16.0067	46	46.0361	9	9.00207	22	22.0067	10059	10218.6	18	18.0033	7	7.00094	6	6.00077	10	10.0017	51	51.0401	
71	700	365.89	328439	360370	31	31.0174	5	5.00014	9	9.00062	9	9.00215	402	402.32	28	28.0137	456	456.501	160	160.07	128	128.118	403	403.676	9	9.00814	45	45.0405	18	18.0163	33	33.0302	14	14.0076	17	17.0063	69	69.1587	158	158.383	75	75.0889	53	53.0339	10	10.0067	12	12.0026	70	70.0551	35	35.0412	24	24.016	8	8.00258	23	23.0088	39	39.0114	5	5.00064	19	19.0054	2	2.00027	17	17.0047	37	37.0219	7	7.00085	12	12.0013	5	5.00039	2	2.00007	2	2.00008	11	11.0017	3	3.00007	2	2.00013	2	2.00012	1	1.00003	1	1.00003	1	1.00003	2	2.00006	0	0	3	3.00011	2	2.00006	92880	109405	4	4.00047	4	4.0006	34	34.0086	20	20.0054	9	9.00269	7	7.0022	12	12.0049	83	83.0671	10	10.0006	3	3.00014	27610	28854.9	21	21.0013	9	9.00067	18	18.0027	7	7.00073	1	1.00001	82913	96393	5	5.00032	10	10.0006	23	23.0126	16	16.0065	37	37.0285	12	12.003	23	23.0085	11437	11643.4	9	9.00145	11	11.0017	14	14.0023	11	11.0021	49	49.0377	
72	710	371.117	348669	385712	30	30.0134	1	1.00003	4	4.00026	8	8.00156	368	368.295	26	26.013	482	482.52	164	164.082	175	175.167	425	425.698	10	10.0085	44	44.0374	18	18.0155	25	25.0209	23	23.0128	14	14.0075	73	73.1771	190	190.45	75	75.0866	50	50.0329	18	18.0126	19	19.0042	91	91.0813	18	18.0193	34	34.0224	9	9.00325	33	33.0166	26	26.0078	6	6.00096	16	16.0048	9	9.00142	15	15.0053	14	14.0073	4	4.00042	3	3.00032	13	13.0012	1	1.00006	2	2.00008	10	10.0018	1	1.00002	4	4.00037	3	3.00012	3	3.00007	1	1.00003	0	0	2	2.00005	3	3.00006	4	4.00027	1	1.00001	99962	119455	7	7.00079	11	11.0017	25	25.0046	28	28.0104	12	12.0037	13	13.0051	13	13.0053	94	94.0822	3	3.00013	1	1.00004	30619	32158.6	21	21.0012	13	13.001	9	9.001	7	7.001	1	1.00004	87631	102885	13	13.0013	3	3.00015	41	41.0264	15	15.0061	39	39.028	15	15.0049	23	23.008	12154	12388.2	15	15.0034	16	16.0026	21	21.0043	12	12.0025	45	45.0325	
73	720	376.344	268316	286878	31	31.0146	1	1.00003	10	10.0009	11	11.0026	326	326.217	36	36.0177	344	344.279	117	117.046	114	114.089	325	325.478	8	8.00646	38	38.0305	16	16.0129	40	40.032	18	18.0095	14	14.0071	66	66.1452	134	134.286	51	51.0525	34	34.0189	12	12.0071	11	11.0026	65	65.0608	17	17.0192	28	28.018	8	8.00225	34	34.0126	27	27.0074	5	5.00066	10	10.0033	4	4.00044	5	5.00144	23	23.0123	7	7.00077	1	1.0001	5	5.00028	4	4.00026	1	1.00006	5	5.00046	2	2.00006	3	3.00022	5	5.00037	1	1.00003	3	3.00008	4	4.00005	1	1.00001	0	0	3	3.00016	3	3.00006	70597	79621.9	2	2.00016	9	9.00118	17	17.0026	10	10.0024	7	7.00171	9	9.00242	16	16.0058	76	76.0569	3	3.00011	2	2.00012	20872	21572.8	11	11.0007	7	7.00043	7	7.00078	6	6.00062	3	3.00007	66772	75156.5	7	7.00047	2	2.00011	15	15.0076	19	19.0069	37	37.0267	16	16.0043	23	23.0066	9227	9360.64	11	11.0019	14	14.0018	9	9.00139	3	3.00054	50	50.0362	
74	730	381.571	326430	357803	29	29.0141	3	3.00011	5	5.0003	13	13.003	345	345.257	36	36.0184	440	440.442	157	157.065	134	134.112	406	406.639	6	6.00526	47	47.0411	15	15.0131	35	35.0306	22	22.0104	23	23.0116	67	67.1486	180	180.417	49	49.0581	44	44.0283	13	13.0091	11	11.0027	84	84.0804	22	22.0257	29	29.0199	8	8.00287	21	21.0076	34	34.0111	5	5.00078	14	14.0045	6	6.00074	6	6.00186	30	30.0188	8	8.00085	5	5.00032	2	2.00014	2	2.00007	2	2.00009	6	6.00105	2	2.00007	6	6.00063	4	4.00025	3	3.00012	4	4.00007	3	3.00006	1	1.00004	3	3.00009	2	2.0001	0	0	92176	108424	5	5.00052	8	8.001	17	17.003	25	25.0079	9	9.0025	8	8.00244	10	10.0038	77	77.0618	3	3.00011	1	1.00005	27146	28347.6	12	12.0006	9	9.00052	6	6.00064	10	10.0011	1	1.00005	82263	95496.1	10	10.001	2	2.00011	23	23.0114	16	16.0061	40	40.0308	13	13.0035	28	28.0103	11264	11464.3	7	7.0012	9	9.0016	10	10.0012	20	20.0039	54	54.0414	
75	740	386.798	358570	398441	40	40.0201	1	1.00003	11	11.0008	11	11.0032	341	341.239	35	35.0193	484	484.51	141	141.06	173	173.171	429	429.702	8	8.00696	39	39.0338	22	22.0192	26	26.0223	21	21.0116	24	24.012	76	76.1672	169	169.394	62	62.0771	51	51.0318	24	24.017	17	17.0034	79	79.0672	28	28.0331	31	31.0226	4	4.00136	21	21.0087	43	43.0123	6	6.00082	16	16.0056	5	5.00074	7	7.00209	23	23.0146	3	3.00031	4	4.00038	7	7.00069	1	1.00005	1	1.00006	6	6.00097	4	4.0002	6	6.00063	10	10.0006	3	3.00011	2	2.00008	4	4.00013	2	2.00007	2	2.00007	5	5.00039	3	3.00009	103767	124990	11	11.0012	12	12.0016	31	31.0062	22	22.0065	9	9.00319	14	14.005	18	18.0062	87	87.0642	3	3.00014	3	3.00007	31081	32668.9	13	13.0008	13	13.0008	14	14.0018	10	10.0011	3	3.0001	90064	106261	7	7.00063	7	7.00047	21	21.0106	21	21.0073	32	32.0235	13	13.0043	23	23.0083	12635	12887.8	9	9.00148	6	6.00107	15	15.0026	17	17.0035	43	43.0316	
